"Wavelength (A)" Specta "Best Fitting Model" "Non-parm Extinction Curve" "Non-param Adjusted Continuum"
4051.13 0.611104 0.289534 0.0 0.868656
4051.46 0.613508 0.329918 0.0 0.86828
4051.79 0.61469 0.371024 0.0 0.867904
4052.13 0.614383 0.409886 0.0 0.867528
4052.46 0.61292 0.444197 0.0 0.867152
4052.79 0.610686 0.473436 0.0 0.866777
4053.12 0.607912 0.498757 0.0 0.866401
4053.45 0.6047 0.521576 0.0 0.866026
4053.78 0.601153 0.542084 0.0 0.865652
4054.12 0.597408 0.559168 0.0 0.865278
4054.45 0.593612 0.571538 0.0 0.864904
4054.78 0.590075 0.578863 0.0 0.864531
4055.11 0.587528 0.582152 0.0 0.864158
4055.44 0.586742 0.583073 0.0 0.863787
4055.77 0.587443 0.582887 0.0 0.863416
4056.11 0.588108 0.582143 0.0 0.863045
4056.44 0.587286 0.580938 0.0 0.862676
4056.77 0.584962 0.57927 0.0 0.862307
4057.1 0.581934 0.577347 0.0 0.86194
4057.43 0.578898 0.575588 0.0 0.861573
4057.77 0.576135 0.57433 0.0 0.861208
4058.1 0.573819 0.573713 0.0 0.860843
4058.43 0.57216 0.573727 0.0 0.86048
4058.76 0.571417 0.574297 0.0 0.860118
4059.09 0.571816 0.575388 0.0 0.859757
4059.43 0.572945 0.576915 4.64043 0.859398
4059.76 0.573875 0.578581 4.6441 0.85904
4060.09 0.573799 0.579387 4.65527 0.858684
4060.42 0.572687 0.578798 4.66756 0.858329
4060.76 0.570796 0.576933 4.6805 0.857975
4061.09 0.568455 0.573987 4.6965 0.857624
4061.42 0.566181 0.570102 4.71258 0.857274
4061.75 0.564493 0.565473 4.72361 0.856925
4062.08 0.563073 0.560382 4.72857 0.856579
4062.42 0.56068 0.555115 4.73354 0.856234
4062.75 0.556274 0.549865 4.76778 0.855891
4063.08 0.551037 0.544846 4.81237 0.855551
4063.41 0.547297 0.540351 4.85589 0.855212
4063.75 0.546573 0.536679 4.86063 0.854875
4064.08 0.547483 0.534094 4.86537 0.854541
4064.41 0.548019 0.532859 4.8722 0.854208
4064.74 0.547189 0.532617 4.88318 0.853878
4065.08 0.545561 0.533774 4.89421 0.85355
4065.41 0.543843 0.536294 4.89859 0.853225
4065.74 0.542773 0.540073 4.89904 0.852902
4066.07 0.543115 0.544941 4.89949 0.852581
4066.41 0.545501 0.550666 4.87324 0.852263
4066.74 0.549887 0.556975 4.845 0.851948
4067.07 0.55602 0.563563 4.81458 0.851635
4067.41 0.563376 0.570106 4.77587 0.851325
4067.74 0.570866 0.576287 4.73762 0.851018
4068.07 0.577345 0.581816 4.70553 0.850713
4068.4 0.5821 0.586442 4.67911 0.850411
4068.74 0.584833 0.589972 4.65291 0.850113
4069.07 0.585382 0.592292 4.64321 0.849817
4069.4 0.584458 0.593384 4.63736 0.849524
4069.74 0.583151 0.593329 4.63311 0.849235
4070.07 0.582343 0.592296 4.64212 0.848948
4070.4 0.582296 0.590522 4.65116 0.848665
4070.73 0.583154 0.588284 4.64956 0.848385
4071.07 0.58468 0.585862 4.63232 0.848108
4071.4 0.586155 0.583504 4.61517 0.847835
4071.73 0.58688 0.581411 4.60627 0.847565
4072.07 0.586732 0.579716 4.60085 0.847298
4072.4 0.585924 0.578479 4.59544 0.847035
4072.73 0.584664 0.577671 4.60048 0.846776
4073.07 0.583112 0.577191 4.60554 0.84652
4073.4 0.58142 0.576881 4.61057 0.846268
4073.73 0.579808 0.576552 4.61556 0.84602
4074.07 0.578609 0.576013 4.62055 0.845776
4074.4 0.578126 0.575108 4.62504 0.845535
4074.73 0.578071 0.573739 4.62919 0.845299
4075.07 0.577695 0.571877 4.63335 0.845066
4075.4 0.576326 0.569558 4.65284 0.844838
4075.73 0.573761 0.566897 4.67417 0.844613
4076.07 0.569958 0.564075 4.69849 0.844393
4076.4 0.565303 0.561331 4.73439 0.844177
4076.73 0.561136 0.558946 4.77071 0.843965
4077.07 0.558882 0.55722 4.78916 0.843758
4077.4 0.559045 0.556438 4.78958 0.843555
4077.73 0.561204 0.556833 4.79001 0.843356
4078.07 0.564875 0.558561 4.76056 0.843162
4078.4 0.569388 0.561681 4.72423 0.842972
4078.74 0.573988 0.566151 4.68915 0.842787
4079.07 0.578199 0.571844 4.66139 0.842607
4079.4 0.582345 0.578554 4.63387 0.842432
4079.74 0.58689 0.586018 4.60054 0.842261
4080.07 0.592109 0.593926 4.55902 0.842095
4080.4 0.598038 0.60194 4.51805 0.841934
4080.74 0.60466 0.609706 4.47307 0.841777
4081.07 0.611599 0.616879 4.42696 0.841626
4081.41 0.618273 0.623152 4.38191 0.84148
4081.74 0.62415 0.628292 4.35581 0.841339
4082.07 0.62888 0.632173 4.32993 0.841203
4082.41 0.632167 0.634797 4.30949 0.841073
4082.74 0.63413 0.63629 4.29999 0.840948
4083.08 0.635552 0.63688 4.29053 0.840828
4083.41 0.63725 0.636864 4.28017 0.840713
4083.74 0.639712 0.636559 4.26932 0.840604
4084.08 0.643185 0.636267 4.25851 0.8405
4084.41 0.647625 0.636257 4.24614 0.840402
4084.75 0.651573 0.636749 4.23372 0.84031
4085.08 0.653151 0.637915 4.2275 0.840223
4085.42 0.651826 0.639872 4.24048 0.840142
4085.75 0.649721 0.642694 4.25351 0.840067
4086.08 0.649185 0.646391 4.25153 0.839997
4086.42 0.650972 0.650891 4.23733 0.839934
4086.75 0.654435 0.656037 4.22319 0.839876
4087.09 0.658913 0.661597 4.20149 0.839825
4087.42 0.663961 0.66729 4.1787 0.839779
4087.76 0.669215 0.672813 4.15809 0.83974
4088.09 0.674203 0.677887 4.14747 0.839707
4088.42 0.67819 0.682293 4.13688 0.83968
4088.76 0.680432 0.685881 4.13462 0.839659
4089.09 0.680999 0.688559 4.14148 0.839645
4089.43 0.680822 0.690278 4.14836 0.839637
4089.76 0.680772 0.691024 4.15857 0.839636
4090.1 0.680941 0.69081 4.16972 0.839641
4090.43 0.681055 0.689683 4.18113 0.839652
4090.77 0.680606 0.687726 4.19458 0.839671
4091.1 0.67839 0.685064 4.20809 0.839696
4091.44 0.673121 0.681841 4.23038 0.839727
4091.77 0.665351 0.678196 4.26561 0.839766
4092.11 0.657966 0.674241 4.3013 0.839811
4092.44 0.653681 0.670048 4.31846 0.839864
4092.78 0.652072 0.665652 4.32832 0.839923
4093.11 0.650963 0.661046 4.3386 0.839989
4093.45 0.64863 0.65621 4.36017 0.840063
4093.78 0.64506 0.651113 4.38191 0.840143
4094.12 0.640631 0.645729 4.4084 0.840231
4094.45 0.635596 0.640054 4.44394 0.840326
4094.79 0.630018 0.634123 4.47992 0.840428
4095.12 0.623954 0.628013 4.51848 0.840537
4095.46 0.617521 0.621818 4.55868 0.840653
4095.79 0.610877 0.61562 4.59942 0.840776
4096.13 0.604211 0.609472 4.63527 0.840905
4096.46 0.597834 0.603382 4.67139 0.841041
4096.8 0.59209 0.59732 4.70623 0.841184
4097.13 0.587133 0.591243 4.73718 0.841333
4097.47 0.582776 0.585118 4.76845 0.841489
4097.8 0.578783 0.578936 4.80255 0.84165
4098.14 0.574673 0.5727 4.83872 0.841818
4098.47 0.569777 0.566433 4.8753 0.841992
4098.81 0.563569 0.560164 4.92763 0.842172
4099.14 0.556279 0.553935 4.98221 0.842358
4099.48 0.548379 0.547801 5.03697 0.842549
4099.81 0.540615 0.541853 5.09018 0.842746
4100.15 0.534285 0.536221 5.14425 0.842949
4100.48 0.530675 0.531085 5.17785 0.843157
4100.82 0.529668 0.526662 5.19434 0.84337
4101.16 0.529912 0.523186 5.2109 0.843589
4101.49 0.530198 0.52088 5.22128 0.843813
4101.83 0.530393 0.519922 5.23074 0.844042
4102.16 0.530762 0.520422 5.23701 0.844276
4102.5 0.531585 0.522418 5.22935 0.844515
4102.83 0.533171 0.525881 5.2217 0.844758
4103.17 0.535828 0.530727 5.20178 0.845006
4103.51 0.53973 0.536826 5.17009 0.845259
4103.84 0.544916 0.544004 5.13867 0.845516
4104.18 0.551376 0.552045 5.09166 0.845778
4104.51 0.558801 0.560699 5.04197 0.846044
4104.85 0.566755 0.569686 4.99236 0.846314
4105.18 0.574779 0.578714 4.93969 0.846588
4105.52 0.58236 0.587498 4.88785 0.846866
4105.86 0.589 0.595778 4.84108 0.847148
4106.19 0.594867 0.60333 4.7998 0.847434
4106.53 0.600863 0.609969 4.75905 0.847723
4106.86 0.607773 0.61557 4.71428 0.848016
4107.2 0.615201 0.620059 4.66891 0.848313
4107.54 0.622201 0.623422 4.62575 0.848613
4107.87 0.628018 0.6257 4.59588 0.848916
4108.21 0.632458 0.626991 4.5663 0.849223
4108.54 0.635428 0.627435 4.54882 0.849532
4108.88 0.636921 0.627208 4.54704 0.849845
4109.22 0.637026 0.626513 4.54526 0.85016
4109.55 0.63587 0.625567 4.5563 0.850478
4109.89 0.633844 0.624583 4.57161 0.850799
4110.23 0.631474 0.623757 4.5867 0.851123
4110.56 0.629282 0.623253 4.59842 0.851449
4110.9 0.627771 0.623193 4.61019 0.851777
4111.23 0.627438 0.623649 4.61449 0.852108
4111.57 0.628524 0.624658 4.60759 0.852441
4111.91 0.630948 0.626228 4.6007 0.852776
4112.24 0.634574 0.628351 4.58249 0.853113
4112.58 0.638977 0.630999 4.56013 0.853452
4112.92 0.643571 0.634122 4.53828 0.853793
4113.25 0.647798 0.637631 4.52311 0.854136
4113.59 0.651187 0.641394 4.50802 0.85448
4113.93 0.653302 0.645241 4.50118 0.854826
4114.26 0.654314 0.64898 4.50791 0.855173
4114.6 0.655232 0.652429 4.51466 0.855521
4114.94 0.65699 0.655432 4.51011 0.855871
4115.27 0.659101 0.657859 4.50079 0.856222
4115.61 0.660247 0.659613 4.4921 0.856574
4115.95 0.659524 0.660622 4.50302 0.856927
4116.28 0.657594 0.660853 4.51399 0.85728
4116.62 0.655468 0.660313 4.52652 0.857635
4116.96 0.653741 0.659061 4.54185 0.85799
4117.29 0.652407 0.657206 4.55726 0.858345
4117.63 0.651377 0.654894 4.57163 0.858702
4117.97 0.650212 0.652283 4.58555 0.859058
4118.3 0.648258 0.649531 4.59953 0.859415
4118.64 0.645137 0.646787 4.61287 0.859771
4118.98 0.641555 0.644191 4.62628 0.860128
4119.32 0.63847 0.641876 4.63623 0.860485
4119.65 0.636652 0.63995 4.63949 0.860842
4119.99 0.636574 0.638487 4.64274 0.861198
4120.33 0.638588 0.637525 4.63294 0.861554
4120.66 0.641895 0.637067 4.61686 0.86191
4121.0 0.644969 0.637094 4.6009 0.862265
4121.34 0.646525 0.637578 4.59883 0.862619
4121.68 0.646267 0.638497 4.59676 0.862973
4122.01 0.644162 0.639828 4.59738 0.863326
4122.35 0.640964 0.641528 4.60338 0.863678
4122.69 0.638645 0.643526 4.60939 0.864029
4123.02 0.639115 0.645721 4.59934 0.864379
4123.36 0.642291 0.64799 4.58132 0.864727
4123.7 0.646804 0.65021 4.5634 0.865075
4124.04 0.651324 0.65227 4.55147 0.86542
4124.37 0.654772 0.654077 4.5396 0.865765
4124.71 0.656147 0.655547 4.53566 0.866108
4125.05 0.655219 0.656607 4.5477 0.866449
4125.39 0.652965 0.657197 4.55979 0.866788
4125.72 0.650416 0.657279 4.57877 0.867125
4126.06 0.647993 0.656831 4.60135 0.86746
4126.4 0.645718 0.655848 4.6241 0.867793
4126.74 0.643612 0.654343 4.6462 0.868124
4127.07 0.641705 0.652339 4.66846 0.868453
4127.41 0.640028 0.649861 4.68737 0.868779
4127.75 0.638474 0.64694 4.69935 0.869103
4128.09 0.636725 0.64363 4.71137 0.869424
4128.43 0.634461 0.639991 4.71976 0.869743
4128.76 0.631588 0.636065 4.72635 0.870058
4129.1 0.628155 0.631862 4.733 0.870371
4129.44 0.624272 0.627374 4.75636 0.870681
4129.78 0.620272 0.62261 4.7799 0.870988
4130.11 0.616544 0.617617 4.80382 0.871291
4130.45 0.613243 0.612502 4.82834 0.871591
4130.79 0.610173 0.607431 4.85305 0.871888
4131.13 0.607137 0.602597 4.87108 0.872182
4131.47 0.604285 0.598182 4.88592 0.872471
4131.8 0.60198 0.594336 4.90057 0.872758
4132.14 0.600617 0.591195 4.89743 0.87304
4132.48 0.600678 0.588901 4.8943 0.873318
4132.82 0.602655 0.5876 4.88295 0.873593
4133.16 0.60617 0.587427 4.85662 0.873863
4133.5 0.609565 0.588482 4.8305 0.874129
4133.83 0.611252 0.5908 4.82349 0.874391
4134.17 0.611511 0.594339 4.82498 0.874649
4134.51 0.61175 0.598997 4.82593 0.874902
4134.85 0.613185 0.604628 4.80942 0.875151
4135.19 0.616268 0.611055 4.79299 0.875395
4135.53 0.621271 0.618067 4.76672 0.875634
4135.86 0.628041 0.625425 4.72397 0.875868
4136.2 0.635837 0.632871 4.68178 0.876098
4136.54 0.643832 0.640148 4.64992 0.876322
4136.88 0.650847 0.647027 4.62233 0.876541
4137.22 0.655493 0.653326 4.59618 0.876755
4137.56 0.656939 0.6589 4.59232 0.876963
4137.89 0.656272 0.663609 4.58847 0.877167
4138.23 0.65499 0.667305 4.58621 0.877364
4138.57 0.65442 0.669821 4.58641 0.877557
4138.91 0.655664 0.670989 4.58661 0.877744
4139.25 0.65951 0.670668 4.58081 0.877926
4139.59 0.663982 0.668787 4.57286 0.878103
4139.93 0.665621 0.66536 4.5688 0.878275
4140.26 0.662099 0.660481 4.61136 0.878442
4140.6 0.654738 0.654305 4.65452 0.878603
4140.94 0.645569 0.64703 4.70942 0.87876
4141.28 0.636003 0.638883 4.78098 0.878912
4141.62 0.62669 0.63013 4.8542 0.879059
4141.96 0.6182 0.621082 4.91066 0.879201
4142.3 0.610832 0.612106 4.96234 0.879338
4142.64 0.604747 0.603604 5.01198 0.879471
4142.98 0.600014 0.595991 5.03848 0.879599
4143.31 0.596434 0.589642 5.06519 0.879722
4143.65 0.593757 0.584857 5.08345 0.879841
4143.99 0.591773 0.581819 5.09134 0.879955
4144.33 0.590311 0.580584 5.09924 0.880065
4144.67 0.589233 0.581088 5.09536 0.88017
4145.01 0.588634 0.583169 5.08851 0.880271
4145.35 0.588713 0.586594 5.07969 0.880367
4145.69 0.589686 0.591078 5.05928 0.88046
4146.03 0.591808 0.596303 5.03899 0.880548
4146.37 0.595325 0.601934 5.0145 0.880631
4146.71 0.600149 0.607637 4.98577 0.880711
4147.05 0.605844 0.61309 4.95727 0.880786
4147.38 0.611913 0.618013 4.92621 0.880858
4147.72 0.617572 0.622196 4.8949 0.880925
4148.06 0.621923 0.625509 4.86775 0.880989
4148.4 0.624449 0.627897 4.85759 0.881048
4148.74 0.625529 0.629366 4.84746 0.881104
4149.08 0.625663 0.629963 4.84479 0.881155
4149.42 0.625245 0.629776 4.84857 0.881203
4149.76 0.624574 0.628923 4.85236 0.881248
4150.1 0.623913 0.627547 4.85992 0.881288
4150.44 0.623343 0.625807 4.868 0.881325
4150.78 0.622882 0.623855 4.87578 0.881359
4151.12 0.622517 0.621811 4.88258 0.881388
4151.46 0.622173 0.619759 4.88938 0.881415
4151.8 0.621762 0.61775 4.89693 0.881438
4152.14 0.621086 0.615823 4.905 0.881457
4152.48 0.619862 0.614026 4.9131 0.881473
4152.82 0.61779 0.612404 4.93137 0.881486
4153.16 0.614509 0.610983 4.95047 0.881496
4153.5 0.609649 0.609761 4.97334 0.881502
4153.84 0.604011 0.608725 5.00561 0.881505
4154.18 0.60046 0.607881 5.0382 0.881505
4154.52 0.601781 0.607277 5.02857 0.881502
4154.86 0.607 0.60701 4.99509 0.881496
4155.2 0.612515 0.607203 4.96193 0.881487
4155.54 0.615488 0.607958 4.9555 0.881476
4155.88 0.616442 0.60932 4.94936 0.881461
4156.22 0.616762 0.611276 4.93957 0.881443
4156.56 0.617498 0.613782 4.92283 0.881423
4156.9 0.61919 0.616799 4.90617 0.8814
4157.24 0.622262 0.620304 4.88484 0.881374
4157.58 0.626351 0.624284 4.8616 0.881346
4157.92 0.630627 0.628715 4.83881 0.881315
4158.26 0.634455 0.633533 4.82168 0.881281
4158.6 0.637901 0.638632 4.80464 0.881245
4158.94 0.641183 0.64388 4.78548 0.881206
4159.28 0.644493 0.64915 4.7632 0.881166
4159.62 0.647996 0.654329 4.74107 0.881122
4159.96 0.651837 0.659326 4.7101 0.881077
4160.3 0.656007 0.66407 4.67662 0.881029
4160.64 0.660424 0.668491 4.64405 0.880979
4160.98 0.664949 0.672517 4.61599 0.880927
4161.32 0.669298 0.676073 4.58818 0.880872
4161.66 0.673155 0.679088 4.5706 0.880816
4162.0 0.676066 0.681499 4.56424 0.880758
4162.34 0.677433 0.683247 4.55789 0.880697
4162.68 0.676841 0.684281 4.56354 0.880635
4163.02 0.675172 0.684572 4.57167 0.880571
4163.36 0.67384 0.684115 4.57917 0.880505
4163.7 0.673699 0.68293 4.58388 0.880437
4164.05 0.674309 0.681061 4.58859 0.880367
4164.39 0.675018 0.678571 4.59739 0.880296
4164.73 0.674678 0.675549 4.60962 0.880223
4165.07 0.671698 0.672095 4.6219 0.880149
4165.41 0.665058 0.668333 4.6677 0.880073
4165.75 0.656865 0.664411 4.71781 0.879996
4166.09 0.650251 0.660498 4.75789 0.879917
4166.43 0.646872 0.656748 4.76799 0.879836
4166.77 0.64561 0.653282 4.77813 0.879755
4167.11 0.645093 0.65017 4.78409 0.879672
4167.45 0.644616 0.647439 4.78752 0.879587
4167.79 0.643959 0.645071 4.79095 0.879502
4168.14 0.642917 0.643009 4.80245 0.879415
4168.48 0.641309 0.641157 4.81412 0.879328
4168.82 0.638961 0.63938 4.82839 0.879239
4169.16 0.635867 0.637508 4.8476 0.879149
4169.5 0.63227 0.635363 4.86692 0.879058
4169.84 0.628428 0.632793 4.89055 0.878966
4170.18 0.624498 0.629702 4.91611 0.878874
4170.52 0.620584 0.626062 4.94222 0.87878
4170.86 0.616725 0.621908 4.97333 0.878686
4171.21 0.612755 0.617329 5.00473 0.878591
4171.55 0.608473 0.612452 5.03915 0.878495
4171.89 0.603823 0.607438 5.07753 0.878399
4172.23 0.598929 0.602473 5.11636 0.878302
4172.57 0.593992 0.597762 5.16585 0.878205
4172.91 0.589722 0.59351 5.21876 0.878107
4173.25 0.587062 0.589895 5.26257 0.878009
4173.6 0.586453 0.587056 5.25402 0.87791
4173.94 0.587079 0.58507 5.24548 0.877811
4174.28 0.587958 0.583955 5.23748 0.877711
4174.62 0.588722 0.58368 5.22996 0.877611
4174.96 0.589583 0.584178 5.22246 0.877511
4175.3 0.59075 0.585358 5.21572 0.877411
4175.64 0.592291 0.587114 5.20909 0.877311
4175.99 0.594223 0.589325 5.20219 0.877211
4176.33 0.59648 0.591866 5.19452 0.877111
4176.67 0.598829 0.594606 5.18686 0.87701
4177.01 0.601031 0.597424 5.17808 0.87691
4177.35 0.602962 0.600228 5.16861 0.87681
4177.7 0.604584 0.602964 5.15916 0.87671
4178.04 0.605882 0.605602 5.14752 0.87661
4178.38 0.606917 0.60812 5.13588 0.876511
4178.72 0.60778 0.61048 5.12214 0.876412
4179.06 0.608872 0.612631 5.10455 0.876313
4179.4 0.611054 0.614506 5.08705 0.876215
4179.75 0.615049 0.616065 5.06238 0.876117
4180.09 0.619892 0.617315 5.03511 0.876019
4180.43 0.623678 0.618322 5.01079 0.875922
4180.77 0.625097 0.619192 5.01452 0.875826
4181.11 0.624697 0.620045 5.01825 0.87573
4181.46 0.623381 0.620987 5.02113 0.875636
4181.8 0.622041 0.622084 5.02301 0.875541
4182.14 0.62156 0.623363 5.02488 0.875448
4182.48 0.622678 0.624807 5.01756 0.875355
4182.83 0.625166 0.62636 5.00835 0.875263
4183.17 0.628396 0.627937 4.99922 0.875172
4183.51 0.631689 0.629428 4.99037 0.875081
4183.85 0.634259 0.630714 4.98153 0.874992
4184.19 0.635351 0.631687 4.98268 0.874903
4184.54 0.634967 0.632271 4.99141 0.874814
4184.88 0.633744 0.63243 5.00016 0.874727
4185.22 0.632259 0.632167 5.02178 0.874641
4185.56 0.630705 0.631517 5.04437 0.874555
4185.91 0.62916 0.630537 5.06648 0.87447
4186.25 0.627715 0.629301 5.08732 0.874386
4186.59 0.626481 0.627901 5.10829 0.874303
4186.93 0.625582 0.626453 5.11702 0.874221
4187.28 0.62528 0.625098 5.12006 0.874139
4187.62 0.625921 0.623987 5.12188 0.874059
4187.96 0.62768 0.623264 5.1034 0.873979
4188.3 0.630158 0.623041 5.08501 0.8739
4188.65 0.632836 0.623384 5.06613 0.873822
4188.99 0.635214 0.624313 5.04656 0.873745
4189.33 0.636822 0.625825 5.02711 0.873669
4189.68 0.637275 0.627889 5.02126 0.873594
4190.02 0.636827 0.630451 5.0187 0.87352
4190.36 0.636011 0.633428 5.01824 0.873447
4190.7 0.635347 0.636698 5.02737 0.873375
4191.05 0.63532 0.640101 5.03654 0.873304
4191.39 0.636381 0.643448 5.0396 0.873234
4191.73 0.63844 0.646558 5.03774 0.873165
4192.08 0.640939 0.649264 5.03588 0.873096
4192.42 0.643378 0.651416 5.02286 0.873029
4192.76 0.64563 0.652868 5.00905 0.872963
4193.1 0.647681 0.653475 4.99735 0.872898
4193.45 0.649356 0.653099 4.99033 0.872834
4193.79 0.650209 0.65163 4.98332 0.872771
4194.13 0.649792 0.649021 4.99028 0.872709
4194.48 0.647881 0.645308 5.00376 0.872648
4194.82 0.644392 0.640612 5.01857 0.872589
4195.16 0.639378 0.635109 5.05329 0.87253
4195.51 0.63335 0.62901 5.08838 0.872473
4195.85 0.62691 0.62253 5.12797 0.872416
4196.19 0.620589 0.615877 5.1734 0.872361
4196.54 0.614841 0.609243 5.21943 0.872307
4196.88 0.610016 0.602813 5.25907 0.872254
4197.22 0.605781 0.596762 5.29759 0.872202
4197.57 0.601514 0.591249 5.33446 0.872151
4197.91 0.596932 0.586399 5.36314 0.872102
4198.25 0.59251 0.582306 5.39205 0.872054
4198.6 0.588819 0.579021 5.42 0.872006
4198.94 0.586189 0.576556 5.44727 0.871961
4199.28 0.584752 0.574889 5.47475 0.871916
4199.63 0.584487 0.573979 5.47891 0.871872
4199.97 0.584672 0.573788 5.48199 0.87183
4200.32 0.5844 0.574279 5.48711 0.871789
4200.66 0.583415 0.575426 5.49623 0.87175
4201.0 0.582465 0.57721 5.50538 0.871711
4201.35 0.582372 0.579616 5.51089 0.871674
4201.69 0.583844 0.582614 5.51496 0.871638
4202.03 0.587523 0.586164 5.51531 0.871603
4202.38 0.593424 0.590223 5.4822 0.87157
4202.72 0.599688 0.594759 5.44939 0.871538
4203.07 0.604184 0.599742 5.42323 0.871507
4203.41 0.606554 0.605147 5.40405 0.871478
4203.75 0.608297 0.610941 5.38496 0.87145
4204.1 0.610893 0.617074 5.34705 0.871424
4204.44 0.615146 0.62347 5.30663 0.871398
4204.79 0.621604 0.630036 5.25964 0.871374
4205.13 0.630299 0.636663 5.19244 0.871352
4205.47 0.640254 0.643234 5.12653 0.871331
4205.82 0.650367 0.649617 5.07358 0.871311
4206.16 0.659433 0.655679 5.02816 0.871293
4206.51 0.666171 0.661291 4.9839 0.871276
4206.85 0.669715 0.666343 4.97043 0.87126
4207.19 0.67077 0.670742 4.95702 0.871246
4207.54 0.670419 0.674435 4.94897 0.871234
4207.88 0.669902 0.6774 4.9488 0.871223
4208.23 0.670659 0.67964 4.94863 0.871213
4208.57 0.673851 0.681187 4.93633 0.871205
4208.92 0.678362 0.682104 4.92086 0.871198
4209.26 0.682029 0.682479 4.90837 0.871193
4209.6 0.683474 0.682407 4.90963 0.871189
4209.95 0.683211 0.681972 4.91089 0.871187
4210.29 0.682006 0.681235 4.9211 0.871187
4210.64 0.680193 0.680213 4.93836 0.871188
4210.98 0.677738 0.678884 4.95571 0.87119
4211.33 0.674653 0.677196 4.97936 0.871194
4211.67 0.671211 0.675091 5.00351 0.8712
4212.02 0.667761 0.672521 5.02812 0.871207
4212.36 0.66452 0.669465 5.05348 0.871216
4212.71 0.661509 0.665947 5.07903 0.871226
4213.05 0.658716 0.662039 5.10582 0.871238
4213.4 0.655985 0.657873 5.13322 0.871252
4213.74 0.653079 0.653634 5.16104 0.871267
4214.08 0.649863 0.649534 5.19064 0.871284
4214.43 0.646488 0.645798 5.22049 0.871302
4214.77 0.643172 0.64264 5.24693 0.871322
4215.12 0.640556 0.64026 5.26996 0.871344
4215.46 0.639694 0.638842 5.29313 0.871367
4215.81 0.641281 0.638552 5.28401 0.871393
4216.15 0.643924 0.639523 5.27116 0.87142
4216.5 0.645537 0.641824 5.25999 0.871448
4216.84 0.645618 0.645435 5.25293 0.871478
4217.19 0.646451 0.65023 5.24589 0.87151
4217.53 0.650377 0.655978 5.2198 0.871544
4217.88 0.657164 0.662381 5.18495 0.87158
4218.22 0.664971 0.669104 5.14994 0.871617
4218.57 0.672157 0.675803 5.10858 0.871656
4218.91 0.677801 0.682126 5.06772 0.871697
4219.26 0.681169 0.687723 5.03373 0.871739
4219.6 0.682603 0.692269 5.00745 0.871784
4219.95 0.683634 0.69547 4.98137 0.87183
4220.3 0.68555 0.697074 4.97331 0.871878
4220.64 0.687739 0.696886 4.96827 0.871927
4220.99 0.688865 0.69476 4.96973 0.871979
4221.33 0.687828 0.690578 4.99085 0.872032
4221.68 0.683994 0.684255 5.0121 0.872088
4222.02 0.676826 0.675764 5.06866 0.872145
4222.37 0.666376 0.665166 5.14618 0.872204
4222.71 0.653098 0.652623 5.22661 0.872265
4223.06 0.637568 0.638398 5.3376 0.872328
4223.4 0.620758 0.622846 5.45217 0.872392
4223.75 0.603722 0.606376 5.5688 0.872459
4224.1 0.587305 0.589425 5.68694 0.872528
4224.44 0.572102 0.572453 5.80889 0.872598
4224.79 0.558613 0.555961 5.9131 0.87267
4225.13 0.54681 0.540477 6.01557 0.872745
4225.48 0.53644 0.526553 6.11247 0.872821
4225.82 0.527309 0.514748 6.18276 0.872899
4226.17 0.519329 0.505581 6.25427 0.87298
4226.52 0.512496 0.499475 6.29883 0.873062
4226.86 0.507694 0.496722 6.32667 0.873146
4227.21 0.506456 0.497451 6.35239 0.873232
4227.55 0.509669 0.501605 6.26584 0.873319
4227.9 0.515735 0.508931 6.18104 0.873409
4228.24 0.522509 0.519018 6.10355 0.8735
4228.59 0.529347 0.531338 6.03519 0.873593
4228.94 0.537458 0.545296 5.96796 0.873687
4229.28 0.548002 0.560276 5.86598 0.873783
4229.63 0.560946 0.575682 5.75878 0.873881
4229.97 0.575753 0.59095 5.65261 0.87398
4230.32 0.591651 0.605544 5.54277 0.874081
4230.67 0.607382 0.618965 5.43608 0.874183
4231.01 0.621661 0.63077 5.34877 0.874286
4231.36 0.633742 0.640614 5.27355 0.874391
4231.71 0.643275 0.648287 5.2005 0.874498
4232.05 0.65005 0.653739 5.16616 0.874605
4232.4 0.65436 0.65707 5.13215 0.874714
4232.74 0.656622 0.658501 5.1109 0.874825
4233.09 0.657394 0.658334 5.10713 0.874936
4233.44 0.657406 0.656905 5.10337 0.875049
4233.78 0.657267 0.654542 5.11744 0.875162
4234.13 0.656649 0.651545 5.13557 0.875277
4234.48 0.654833 0.648174 5.15715 0.875393
4234.82 0.651743 0.644654 5.1909 0.87551
4235.17 0.648665 0.641187 5.22499 0.875628
4235.52 0.646959 0.637972 5.24707 0.875747
4235.86 0.64661 0.635224 5.26179 0.875867
4236.21 0.646606 0.633155 5.27646 0.875987
4236.56 0.64604 0.631939 5.28735 0.876109
4236.9 0.644492 0.631671 5.29828 0.876231
4237.25 0.641687 0.632347 5.31341 0.876354
4237.6 0.638529 0.633885 5.33419 0.876478
4237.94 0.637343 0.636165 5.3551 0.876603
4238.29 0.640012 0.639079 5.34163 0.876728
4238.64 0.644924 0.642565 5.32138 0.876854
4238.98 0.649051 0.646605 5.30648 0.87698
4239.33 0.650934 0.651182 5.3084 0.877107
4239.68 0.652269 0.656252 5.31032 0.877235
4240.02 0.655026 0.661729 5.28494 0.877363
4240.37 0.659805 0.667513 5.24479 0.877491
4240.72 0.666272 0.673502 5.20426 0.87762
4241.06 0.673979 0.679618 5.14827 0.877749
4241.41 0.682159 0.685805 5.09318 0.877879
4241.76 0.689981 0.692011 5.04418 0.878008
4242.11 0.696796 0.698146 5.00204 0.878138
4242.45 0.702163 0.704084 4.96042 0.878269
4242.8 0.705753 0.709676 4.93894 0.878399
4243.15 0.707865 0.714762 4.92071 0.87853
4243.49 0.709032 0.719189 4.90564 0.878661
4243.84 0.709973 0.722817 4.89889 0.878791
4244.19 0.711747 0.725513 4.89214 0.878922
4244.54 0.715282 0.727148 4.87505 0.879053
4244.88 0.719586 0.727598 4.85315 0.879184
4245.23 0.72247 0.726765 4.83485 0.879315
4245.58 0.722258 0.724596 4.85322 0.879445
4245.92 0.718917 0.721098 4.87169 0.879576
4246.27 0.712762 0.716332 4.90754 0.879706
4246.62 0.704772 0.710407 4.96165 0.879836
4246.97 0.696594 0.703471 5.01667 0.879966
4247.31 0.689676 0.695709 5.0572 0.880096
4247.66 0.684221 0.687353 5.09659 0.880225
4248.01 0.680014 0.678682 5.13115 0.880354
4248.36 0.676492 0.670016 5.15447 0.880482
4248.7 0.672528 0.661689 5.17795 0.88061
4249.05 0.66707 0.654003 5.21632 0.880738
4249.4 0.660264 0.647186 5.26074 0.880865
4249.75 0.652915 0.641377 5.30651 0.880991
4250.1 0.645765 0.636627 5.35773 0.881117
4250.44 0.63936 0.632924 5.4097 0.881242
4250.79 0.634198 0.630217 5.45109 0.881367
4251.14 0.630489 0.62844 5.48356 0.881491
4251.49 0.628188 0.627507 5.51633 0.881614
4251.83 0.627206 0.627304 5.52908 0.881736
4252.18 0.627296 0.627693 5.54106 0.881858
4252.53 0.62817 0.628537 5.54841 0.881979
4252.88 0.629532 0.629717 5.54794 0.882099
4253.23 0.631084 0.631152 5.54747 0.882218
4253.57 0.632575 0.632819 5.54064 0.882336
4253.92 0.634123 0.634754 5.53211 0.882453
4254.27 0.636019 0.63701 5.52147 0.882569
4254.62 0.638559 0.639627 5.50247 0.882684
4254.97 0.642047 0.642586 5.48355 0.882797
4255.31 0.646693 0.64579 5.4525 0.88291
4255.66 0.65134 0.64906 5.41419 0.883022
4256.01 0.653826 0.652169 5.37716 0.883132
4256.36 0.652964 0.654876 5.36724 0.883241
4256.71 0.651215 0.656968 5.35734 0.883349
4257.06 0.651785 0.658277 5.33884 0.883455
4257.4 0.655428 0.658698 5.30988 0.88356
4257.75 0.660085 0.658189 5.28115 0.883664
4258.1 0.663705 0.656786 5.27666 0.883766
4258.45 0.665227 0.654624 5.27599 0.883867
4258.8 0.663969 0.651937 5.28308 0.883967
4259.15 0.659955 0.649027 5.31023 0.884064
4259.49 0.654468 0.646236 5.33759 0.884161
4259.84 0.6489 0.643911 5.36276 0.884255
4260.19 0.64444 0.64238 5.38707 0.884348
4260.54 0.642155 0.641947 5.40599 0.884439
4260.89 0.64277 0.642886 5.38248 0.884529
4261.24 0.646049 0.645418 5.35913 0.884617
4261.59 0.651574 0.649663 5.321 0.884703
4261.93 0.658748 0.655607 5.27044 0.884787
4262.28 0.666802 0.663082 5.22058 0.884869
4262.63 0.675014 0.671778 5.18104 0.88495
4262.98 0.682885 0.681287 5.14241 0.885028
4263.33 0.689988 0.691168 5.10643 0.885104
4263.68 0.696299 0.700976 5.07455 0.885179
4264.03 0.702346 0.71029 5.04296 0.885251
4264.38 0.708641 0.718735 5.01284 0.885322
4264.73 0.71524 0.725995 4.9833 0.88539
4265.07 0.721986 0.731796 4.95631 0.885456
4265.42 0.728428 0.73591 4.93797 0.88552
4265.77 0.73348 0.738157 4.91974 0.885581
4266.12 0.736009 0.738404 4.92079 0.885641
4266.47 0.735338 0.736566 4.93298 0.885698
4266.82 0.731113 0.732629 4.94668 0.885752
4267.17 0.723454 0.726679 4.98555 0.885804
4267.52 0.714061 0.718894 5.02488 0.885854
4267.87 0.704917 0.709521 5.06417 0.885902
4268.22 0.696598 0.698823 5.10334 0.885947
4268.57 0.68819 0.687052 5.14297 0.885989
4268.91 0.678823 0.674423 5.204 0.886029
4269.26 0.668258 0.661138 5.26849 0.886066
4269.61 0.656471 0.647428 5.33946 0.886101
4269.96 0.643643 0.633596 5.42314 0.886132
4270.31 0.630286 0.620005 5.50881 0.886162
4270.66 0.616943 0.607045 5.59761 0.886188
4271.01 0.604159 0.595082 5.68896 0.886212
4271.36 0.592485 0.584427 5.77921 0.886233
4271.71 0.582458 0.57531 5.85513 0.886251
4272.06 0.574587 0.567897 5.93256 0.886267
4272.41 0.56935 0.56233 5.97444 0.88628
4272.76 0.566797 0.558738 5.99167 0.886291
4273.11 0.56665 0.557226 6.008 0.886299
4273.46 0.568531 0.557854 5.9826 0.886305
4273.81 0.571729 0.560624 5.95736 0.886309
4274.16 0.575476 0.565465 5.9305 0.88631
4274.51 0.579584 0.572217 5.90166 0.886309
4274.86 0.584529 0.58064 5.87303 0.886305
4275.21 0.590745 0.590446 5.82055 0.8863
4275.56 0.598217 0.60131 5.76539 0.886292
4275.91 0.606763 0.612873 5.70604 0.886282
4276.26 0.616083 0.624753 5.63633 0.88627
4276.61 0.625671 0.636559 5.56789 0.886256
4276.96 0.635065 0.647897 5.50982 0.88624
4277.31 0.644398 0.658382 5.45599 0.886222
4277.66 0.654121 0.667679 5.4045 0.886202
4278.01 0.664267 0.675539 5.36193 0.886181
4278.36 0.673812 0.681812 5.31986 0.886157
4278.71 0.681611 0.686454 5.27284 0.886132
4279.06 0.687212 0.68951 5.22267 0.886105
4279.41 0.690717 0.691099 5.17398 0.886076
4279.76 0.692271 0.691405 5.17178 0.886045
4280.11 0.692128 0.690672 5.16958 0.886013
4280.46 0.690572 0.68919 5.17767 0.88598
4280.81 0.688012 0.687261 5.19862 0.885944
4281.16 0.684999 0.685149 5.2197 0.885908
4281.51 0.68205 0.683038 5.24284 0.88587
4281.86 0.679444 0.681009 5.2664 0.88583
4282.21 0.677368 0.679059 5.2882 0.885789
4282.56 0.675778 0.677156 5.30575 0.885747
4282.91 0.674239 0.675288 5.32339 0.885704
4283.26 0.672314 0.673466 5.3447 0.885659
4283.61 0.669845 0.671692 5.36741 0.885613
4283.96 0.666825 0.669925 5.39026 0.885566
4284.31 0.663498 0.668068 5.41324 0.885518
4284.66 0.660713 0.665978 5.43636 0.885469
4285.01 0.659315 0.663508 5.45173 0.885418
4285.36 0.658787 0.660555 5.46196 0.885367
4285.71 0.657574 0.657067 5.4726 0.885315
4286.06 0.654517 0.653027 5.49389 0.885262
4286.41 0.64999 0.648419 5.5153 0.885208
4286.76 0.644708 0.643243 5.54129 0.885153
4287.12 0.639364 0.637533 5.57255 0.885098
4287.47 0.634628 0.631387 5.60408 0.885042
4287.82 0.630823 0.624978 5.63888 0.884985
4288.17 0.626426 0.618548 5.67433 0.884927
4288.52 0.619333 0.612374 5.7224 0.884869
4288.87 0.609456 0.60673 5.79552 0.884811
4289.22 0.599781 0.601856 5.87006 0.884751
4289.57 0.593248 0.597973 5.90007 0.884692
4289.92 0.590296 0.595276 5.91686 0.884632
4290.27 0.59016 0.593908 5.92672 0.884571
4290.62 0.591995 0.593922 5.91016 0.88451
4290.98 0.594808 0.595268 5.89368 0.884449
4291.33 0.597648 0.597781 5.87687 0.884388
4291.68 0.600356 0.60121 5.85992 0.884326
4292.03 0.603312 0.605276 5.84257 0.884265
4292.38 0.606886 0.609718 5.82 0.884203
4292.73 0.611368 0.614301 5.79757 0.884141
4293.08 0.616995 0.618785 5.7673 0.884079
4293.43 0.623184 0.622904 5.72998 0.884017
4293.79 0.628572 0.626361 5.69303 0.883955
4294.14 0.631938 0.62885 5.6825 0.883893
4294.49 0.632849 0.630101 5.67314 0.883831
4294.84 0.631114 0.629928 5.68226 0.883769
4295.19 0.627387 0.628237 5.71974 0.883708
4295.54 0.623425 0.625004 5.7576 0.883647
4295.89 0.620679 0.620242 5.79568 0.883586
4296.25 0.618074 0.613988 5.83409 0.883525
4296.6 0.613524 0.606313 5.88483 0.883465
4296.95 0.605842 0.597344 5.96832 0.883405
4297.3 0.595492 0.587283 6.05361 0.883346
4297.65 0.583178 0.576419 6.15382 0.883287
4298.0 0.570237 0.565095 6.26192 0.883229
4298.35 0.558366 0.553674 6.36787 0.883171
4298.71 0.548443 0.5425 6.44864 0.883114
4299.06 0.539255 0.531887 6.53097 0.883058
4299.41 0.529366 0.522098 6.62128 0.883002
4299.76 0.518884 0.513344 6.71792 0.882948
4300.11 0.509119 0.505784 6.81532 0.882893
4300.47 0.501119 0.499522 6.87972 0.88284
4300.82 0.494883 0.494607 6.94503 0.882788
4301.17 0.490178 0.491022 6.99944 0.882737
4301.52 0.486805 0.488694 7.04156 0.882686
4301.87 0.484598 0.487484 7.08407 0.882637
4302.22 0.483377 0.487203 7.10209 0.882588
4302.58 0.482891 0.487622 7.11809 0.882541
4302.93 0.482865 0.488495 7.1278 0.882495
4303.28 0.483056 0.489569 7.12652 0.88245
4303.63 0.483267 0.490602 7.12524 0.882406
4303.99 0.483324 0.491363 7.12341 0.882364
4304.34 0.483194 0.491638 7.12146 0.882323
4304.69 0.482905 0.491251 7.12287 0.882283
4305.04 0.482452 0.490095 7.13417 0.882245
4305.39 0.481773 0.488156 7.1455 0.882208
4305.75 0.480792 0.485507 7.16182 0.882172
4306.1 0.479369 0.482296 7.18033 0.882138
4306.45 0.477331 0.478717 7.19845 0.882106
4306.8 0.474711 0.474979 7.21385 0.882075
4307.16 0.472083 0.471302 7.2293 0.882046
4307.51 0.470076 0.46794 7.24342 0.882019
4307.86 0.468831 0.465204 7.25663 0.881993
4308.21 0.468102 0.463437 7.26965 0.881969
4308.57 0.467652 0.462969 7.27662 0.881947
4308.92 0.467314 0.464054 7.2836 0.881927
4309.27 0.466971 0.466822 7.28048 0.881908
4309.62 0.467374 0.471273 7.2666 0.881892
4309.98 0.470182 0.477324 7.25277 0.881877
4310.33 0.476656 0.484876 7.17395 0.881865
4310.68 0.485908 0.493867 7.09173 0.881855
4311.03 0.49641 0.504271 6.99316 0.881847
4311.39 0.507543 0.51607 6.86835 0.881841
4311.74 0.519939 0.529215 6.74683 0.881837
4312.09 0.534202 0.543603 6.58954 0.881835
4312.44 0.550118 0.559089 6.4299 0.881836
4312.8 0.567135 0.575518 6.2719 0.881839
4313.15 0.584824 0.592758 6.10941 0.881844
4313.5 0.60297 0.610694 5.95314 0.881852
4313.86 0.621412 0.629211 5.80084 0.881862
4314.21 0.640282 0.648179 5.65359 0.881875
4314.56 0.659871 0.66743 5.51062 0.881891
4314.92 0.68019 0.686747 5.36744 0.881908
4315.27 0.700579 0.705865 5.22975 0.881929
4315.62 0.720305 0.72449 5.11214 0.881952
4315.97 0.738957 0.742299 5.00699 0.881978
4316.33 0.756358 0.758959 4.90695 0.882007
4316.68 0.772355 0.774158 4.83156 0.882038
4317.03 0.78686 0.787637 4.75789 0.882072
4317.39 0.799786 0.7992 4.69607 0.882108
4317.74 0.810789 0.808693 4.64429 0.882147
4318.09 0.819292 0.815992 4.59336 0.882188
4318.45 0.824815 0.82101 4.57336 0.882232
4318.8 0.827332 0.823696 4.55401 0.882279
4319.15 0.826945 0.824049 4.55044 0.882328
4319.51 0.823976 0.822122 4.56725 0.882379
4319.86 0.819013 0.818006 4.58414 0.882432
4320.21 0.812484 0.811811 4.62674 0.882488
4320.57 0.803845 0.803647 4.6732 0.882546
4320.92 0.79223 0.793633 4.72654 0.882607
4321.27 0.777903 0.781919 4.79289 0.88267
4321.63 0.762825 0.768702 4.86065 0.882735
4321.98 0.748827 0.754213 4.93034 0.882802
4322.34 0.735705 0.738711 5.00168 0.882871
4322.69 0.722342 0.722499 5.07724 0.882942
4323.04 0.708149 0.705952 5.16263 0.883015
4323.4 0.693565 0.689556 5.25019 0.883091
4323.75 0.679171 0.673922 5.33551 0.883168
4324.1 0.665804 0.659736 5.42102 0.883248
4324.46 0.65445 0.647658 5.50359 0.883329
4324.81 0.645773 0.63823 5.56201 0.883412
4325.17 0.639655 0.631821 5.62137 0.883498
4325.52 0.635884 0.628624 5.65294 0.883585
4325.87 0.634628 0.628701 5.66717 0.883673
4326.23 0.636337 0.632031 5.67592 0.883764
4326.58 0.641292 0.638508 5.61941 0.883856
4326.94 0.649225 0.647909 5.56373 0.88395
4327.29 0.659755 0.659862 5.4922 0.884046
4327.64 0.672399 0.673847 5.40788 0.884144
4328.0 0.686579 0.689222 5.32549 0.884243
4328.35 0.701714 0.705296 5.23528 0.884344
4328.71 0.717213 0.721407 5.14727 0.884446
4329.06 0.732483 0.736976 5.06442 0.88455
4329.41 0.747005 0.751541 4.98707 0.884655
4329.77 0.760337 0.764775 4.91146 0.884762
4330.12 0.772092 0.776503 4.85418 0.88487
4330.48 0.782135 0.786687 4.79948 0.884979
4330.83 0.790424 0.795386 4.75618 0.88509
4331.19 0.797145 0.80272 4.73107 0.885203
4331.54 0.802811 0.808814 4.70617 0.885316
4331.89 0.807978 0.813752 4.68513 0.885431
4332.25 0.813316 0.817567 4.66497 0.885548
4332.6 0.81953 0.820275 4.64449 0.885665
4332.96 0.826243 0.821889 4.62306 0.885784
4333.31 0.831204 0.822436 4.60178 0.885903
4333.67 0.832209 0.821937 4.6083 0.886024
4334.02 0.829084 0.820374 4.62397 0.886146
4334.38 0.82269 0.817648 4.64531 0.886269
4334.73 0.81428 0.813583 4.6874 0.886393
4335.09 0.805916 0.807959 4.73007 0.886518
4335.44 0.7995 0.800576 4.763 0.886644
4335.8 0.793904 0.791314 4.79131 0.886771
4336.15 0.78611 0.78018 4.82642 0.886899
4336.5 0.774317 0.767332 4.90272 0.887028
4336.86 0.760039 0.753072 4.98084 0.887158
4337.21 0.745253 0.737823 5.06089 0.887288
4337.57 0.730816 0.722099 5.14292 0.887419
4337.92 0.716724 0.706454 5.22694 0.887551
4338.28 0.703004 0.691434 5.31268 0.887684
4338.63 0.689836 0.67754 5.40054 0.887817
4338.99 0.67744 0.665207 5.48291 0.887951
4339.34 0.66618 0.654805 5.56027 0.888085
4339.7 0.656548 0.646648 5.63928 0.88822
4340.05 0.649032 0.640993 5.68423 0.888356
4340.41 0.644085 0.638025 5.72962 0.888492
4340.76 0.642139 0.637824 5.7487 0.888629
4341.12 0.643439 0.640339 5.73674 0.888766
4341.47 0.648018 0.645373 5.72481 0.888904
4341.83 0.655701 0.652612 5.66697 0.889042
4342.19 0.665316 0.661662 5.60654 0.88918
4342.54 0.675409 0.67209 5.5461 0.889319
4342.9 0.685417 0.683463 5.48518 0.889458
4343.25 0.695947 0.695384 5.42525 0.889597
4343.61 0.707503 0.707503 5.36077 0.889737
4343.96 0.719457 0.719528 5.29655 0.889876
4344.32 0.73076 0.731235 5.23542 0.890016
4344.67 0.740763 0.742455 5.17921 0.890156
4345.03 0.749441 0.75306 5.12389 0.890296
4345.38 0.757022 0.762951 5.076 0.890437
4345.74 0.765236 0.772052 5.0304 0.890577
4346.09 0.776464 0.780295 4.9771 0.890717
4346.45 0.790634 0.787624 4.90226 0.890858
4346.81 0.803117 0.793979 4.82909 0.890998
4347.16 0.809368 0.799279 4.81395 0.891138
4347.52 0.810146 0.803405 4.81928 0.891278
4347.87 0.809045 0.806204 4.82342 0.891418
4348.23 0.808528 0.807507 4.82297 0.891558
4348.58 0.808515 0.807177 4.82253 0.891697
4348.94 0.808554 0.805152 4.82748 0.891836
4349.3 0.807846 0.801474 4.83504 0.891975
4349.65 0.805376 0.796287 4.84557 0.892114
4350.01 0.800489 0.789827 4.87336 0.892252
4350.36 0.793492 0.7824 4.90139 0.89239
4350.72 0.784865 0.774354 4.94305 0.892528
4351.08 0.775406 0.76607 4.99366 0.892665
4351.43 0.766146 0.757949 5.04433 0.892802
4351.79 0.757945 0.750403 5.08837 0.892938
4352.14 0.751125 0.743837 5.133 0.893074
4352.5 0.745883 0.738621 5.16682 0.893209
4352.86 0.742058 0.735054 5.19203 0.893344
4353.21 0.739179 0.733332 5.21696 0.893478
4353.57 0.736948 0.733524 5.22883 0.893611
4353.92 0.735719 0.735561 5.24075 0.893743
4354.28 0.735986 0.739246 5.24143 0.893875
4354.64 0.73812 0.744278 5.23125 0.894007
4354.99 0.742372 0.750299 5.22109 0.894137
4355.35 0.748814 0.75692 5.18659 0.894267
4355.71 0.756789 0.763763 5.15199 0.894395
4356.06 0.765449 0.770495 5.11183 0.894523
4356.42 0.774017 0.776851 5.06519 0.89465
4356.78 0.781789 0.782648 5.01918 0.894776
4357.13 0.78823 0.787785 4.96777 0.894901
4357.49 0.793582 0.792238 4.9167 0.895025
4357.85 0.798324 0.796038 4.88049 0.895148
4358.2 0.802566 0.799263 4.86506 0.89527
4358.56 0.805961 0.802032 4.8497 0.895391
4358.91 0.808203 0.804491 4.85099 0.895511
4359.27 0.809418 0.806809 4.85449 0.89563
4359.63 0.809891 0.809163 4.85964 0.895747
4359.98 0.810071 0.81172 4.86777 0.895863
4360.34 0.810652 0.814613 4.87592 0.895978
4360.7 0.812276 0.817936 4.87666 0.896092
4361.06 0.815118 0.821739 4.87595 0.896204
4361.41 0.819165 0.826005 4.86627 0.896315
4361.77 0.824147 0.830651 4.83717 0.896425
4362.13 0.829384 0.835529 4.80832 0.896533
4362.48 0.834231 0.840434 4.7866 0.89664
4362.84 0.838587 0.845135 4.76681 0.896746
4363.2 0.842603 0.849407 4.74939 0.896851
4363.55 0.846363 0.853068 4.73806 0.896954
4363.91 0.849823 0.855975 4.72678 0.897056
4364.27 0.852904 0.858023 4.72268 0.897156
4364.62 0.855341 0.859129 4.72097 0.897256
4364.98 0.856771 0.859225 4.72224 0.897354
4365.34 0.856874 0.858275 4.7335 0.897452
4365.7 0.855412 0.856296 4.74481 0.897548
4366.05 0.852187 0.853373 4.76938 0.897643
4366.41 0.847327 0.849649 4.7996 0.897737
4366.77 0.841144 0.845309 4.83047 0.897829
4367.13 0.834304 0.840542 4.86315 0.897921
4367.48 0.828272 0.835532 4.89617 0.898012
4367.84 0.824472 0.830449 4.91155 0.898102
4368.2 0.822521 0.825449 4.9182 0.898191
4368.55 0.820891 0.82067 4.92582 0.898279
4368.91 0.81837 0.816218 4.93871 0.898366
4369.27 0.814604 0.812147 4.95165 0.898452
4369.63 0.809428 0.808446 4.97453 0.898537
4369.98 0.803356 0.80504 5.00329 0.898621
4370.34 0.797383 0.801803 5.03331 0.898705
4370.7 0.79226 0.798585 5.07127 0.898787
4371.06 0.788019 0.795228 5.10967 0.898869
4371.42 0.784584 0.791589 5.13946 0.89895
4371.77 0.782087 0.787553 5.16349 0.89903
4372.13 0.780823 0.783063 5.18572 0.89911
4372.49 0.780589 0.77814 5.18693 0.899189
4372.85 0.779628 0.772892 5.18813 0.899267
4373.2 0.775992 0.767526 5.20827 0.899345
4373.56 0.769642 0.762323 5.24302 0.899422
4373.92 0.762125 0.757592 5.27793 0.899498
4374.28 0.754963 0.753615 5.30995 0.899574
4374.64 0.749405 0.750614 5.34227 0.899649
4374.99 0.746579 0.748728 5.35886 0.899723
4375.35 0.746393 0.748014 5.36185 0.899797
4375.71 0.747646 0.748475 5.36441 0.899871
4376.07 0.749299 0.750062 5.3504 0.899944
4376.43 0.751044 0.752682 5.33645 0.900016
4376.78 0.752749 0.756164 5.32741 0.900089
4377.14 0.7544 0.76024 5.32303 0.90016
4377.5 0.756098 0.764539 5.31866 0.900232
4377.86 0.757914 0.768611 5.31539 0.900302
4378.22 0.759788 0.771957 5.31213 0.900373
4378.57 0.761617 0.774087 5.31148 0.900443
4378.93 0.763059 0.774558 5.3136 0.900513
4379.29 0.763525 0.77301 5.31572 0.900583
4379.65 0.762428 0.769182 5.33615 0.900652
4380.01 0.759249 0.762928 5.35719 0.900721
4380.37 0.753497 0.75424 5.39376 0.90079
4380.72 0.74506 0.743271 5.44888 0.900859
4381.08 0.734239 0.730332 5.50487 0.900927
4381.44 0.721384 0.715869 5.59173 0.900996
4381.8 0.706962 0.700433 5.68225 0.901064
4382.16 0.691486 0.684649 5.77225 0.901132
4382.52 0.675808 0.669176 5.86083 0.9012
4382.88 0.661178 0.654701 5.95147 0.901268
4383.23 0.648729 0.641907 6.01655 0.901336
4383.59 0.638898 0.631433 6.08062 0.901403
4383.95 0.631903 0.623797 6.12784 0.901471
4384.31 0.627794 0.619336 6.15088 0.901539
4384.67 0.626417 0.618153 6.17405 0.901607
4385.03 0.62762 0.62013 6.1562 0.901675
4385.39 0.631331 0.624963 6.13451 0.901743
4385.74 0.637503 0.632224 6.09884 0.901811
4386.1 0.645779 0.641401 6.04295 0.901879
4386.46 0.655414 0.651943 5.98782 0.901948
4386.82 0.665703 0.663271 5.92863 0.902016
4387.18 0.676306 0.67483 5.86977 0.902085
4387.54 0.687009 0.686128 5.81299 0.902154
4387.9 0.69745 0.696779 5.75891 0.902223
4388.26 0.707075 0.706509 5.70559 0.902293
4388.62 0.715369 0.715166 5.66583 0.902363
4388.98 0.722111 0.722687 5.62818 0.902433
4389.33 0.72719 0.729079 5.59706 0.902503
4389.69 0.730758 0.734406 5.57636 0.902574
4390.05 0.733329 0.738797 5.55578 0.902645
4390.41 0.735453 0.74244 5.54285 0.902716
4390.77 0.737718 0.745556 5.5311 0.902788
4391.13 0.740721 0.748364 5.51193 0.902861
4391.49 0.744687 0.751053 5.47992 0.902933
4391.85 0.749312 0.753748 5.44819 0.903007
4392.21 0.754158 0.756508 5.42334 0.90308
4392.57 0.758218 0.759352 5.39973 0.903155
4392.93 0.760293 0.762299 5.38425 0.903229
4393.29 0.760283 0.765402 5.38333 0.903305
4393.65 0.759698 0.768764 5.38242 0.903381
4394.01 0.760116 0.772521 5.36785 0.903457
4394.37 0.762719 0.776781 5.35097 0.903535
4394.72 0.768509 0.781576 5.31974 0.903612
4395.08 0.777219 0.786834 5.26207 0.903691
4395.44 0.786684 0.792376 5.20533 0.90377
4395.8 0.794853 0.797952 5.16852 0.90385
4396.16 0.801404 0.803298 5.13556 0.903931
4396.52 0.806699 0.808177 5.10722 0.904012
4396.88 0.811066 0.812396 5.08731 0.904095
4397.24 0.814775 0.815819 5.06752 0.904178
4397.6 0.818024 0.818363 5.06305 0.904261
4397.96 0.820589 0.819979 5.06149 0.904346
4398.32 0.822073 0.820648 5.06433 0.904432
4398.68 0.822235 0.82036 5.0758 0.904518
4399.04 0.821068 0.819098 5.0873 0.904606
4399.4 0.818633 0.81683 5.10545 0.904694
4399.76 0.815297 0.813526 5.12498 0.904783
4400.12 0.811546 0.809181 5.14629 0.904874
4400.48 0.807388 0.803845 5.17105 0.904965
4400.84 0.802099 0.797637 5.196 0.905057
4401.2 0.79505 0.790722 5.24166 0.90515
4401.56 0.786621 0.78327 5.29197 0.905245
4401.92 0.777595 0.775415 5.34197 0.90534
4402.28 0.768515 0.76724 5.39065 0.905437
4402.64 0.759549 0.758798 5.44 0.905535
4403.0 0.75083 0.75016 5.48804 0.905634
4403.36 0.74247 0.74147 5.53633 0.905734
4403.72 0.734569 0.732977 5.58331 0.905835
4404.08 0.72727 0.72502 5.62708 0.905938
4404.44 0.720787 0.717979 5.67138 0.906041
4404.8 0.715331 0.712226 5.70592 0.906146
4405.16 0.711086 0.708048 5.73888 0.906253
4405.53 0.708219 0.705619 5.76409 0.90636
4405.89 0.706851 0.704998 5.77432 0.906469
4406.25 0.707022 0.706163 5.78459 0.90658
4406.61 0.708766 0.709045 5.77403 0.906691
4406.97 0.712118 0.713578 5.75987 0.906804
4407.33 0.717111 0.71973 5.73315 0.906919
4407.69 0.723793 0.727483 5.6839 0.907035
4408.05 0.73223 0.736783 5.63529 0.907152
4408.41 0.742429 0.747498 5.56612 0.907271
4408.77 0.754014 0.759377 5.49479 0.907391
4409.13 0.766461 0.772039 5.42309 0.907513
4409.49 0.77902 0.785004 5.34979 0.907636
4409.85 0.79062 0.797752 5.27796 0.90776
4410.21 0.800432 0.809798 5.22826 0.907885
4410.57 0.809229 0.820728 5.18235 0.908012
4410.94 0.818347 0.830213 5.14181 0.90814
4411.3 0.827742 0.837995 5.10963 0.908269
4411.66 0.835461 0.84387 5.07774 0.908399
4412.02 0.839782 0.847676 5.06467 0.90853
4412.38 0.841108 0.849321 5.05414 0.908663
4412.74 0.840597 0.848826 5.04816 0.908796
4413.1 0.839367 0.846368 5.0493 0.90893
4413.46 0.838475 0.842277 5.05044 0.909066
4413.82 0.838718 0.837005 5.05471 0.909202
4414.18 0.839463 0.83108 5.05935 0.909339
4414.55 0.839599 0.825048 5.06491 0.909478
4414.91 0.838277 0.819437 5.07184 0.909617
4415.27 0.83498 0.814732 5.07879 0.909757
4415.63 0.829468 0.811353 5.10476 0.909897
4415.99 0.822802 0.809615 5.1328 0.910039
4416.35 0.816468 0.809691 5.1552 0.910181
4416.71 0.811819 0.811598 5.16963 0.910324
4417.07 0.810052 0.815207 5.18412 0.910468
4417.44 0.812108 0.820286 5.16644 0.910612
4417.8 0.817727 0.826529 5.14644 0.910757
4418.16 0.826261 0.833569 5.11538 0.910903
4418.52 0.836561 0.840988 5.07056 0.911049
4418.88 0.84689 0.848318 5.02632 0.911195
4419.24 0.855642 0.855056 4.99149 0.911342
4419.61 0.861972 0.86074 4.95746 0.91149
4419.97 0.865288 0.865031 4.9423 0.911638
4420.33 0.865927 0.867767 4.94888 0.911787
4420.69 0.865256 0.868962 4.95547 0.911936
4421.05 0.864562 0.86877 4.95349 0.912085
4421.41 0.864554 0.867417 4.95127 0.912234
4421.78 0.865753 0.865125 4.94688 0.912384
4422.14 0.867913 0.862092 4.94018 0.912534
4422.5 0.869995 0.858519 4.9335 0.912685
4422.86 0.871004 0.85464 4.93292 0.912835
4423.22 0.870289 0.85073 4.93236 0.912986
4423.58 0.867347 0.84709 4.94032 0.913137
4423.95 0.863008 0.843988 4.95652 0.913288
4424.31 0.85941 0.841605 4.97286 0.913439
4424.67 0.857905 0.840005 4.99143 0.91359
4425.03 0.856723 0.83915 5.01011 0.913741
4425.39 0.853499 0.838955 5.03155 0.913892
4425.76 0.848426 0.83932 5.05541 0.914043
4426.12 0.844025 0.84015 5.07835 0.914194
4426.48 0.842272 0.841341 5.08135 0.914345
4426.84 0.843009 0.842767 5.08434 0.914496
4427.21 0.845591 0.844276 5.07941 0.914647
4427.57 0.848925 0.84572 5.06844 0.914797
4427.93 0.851545 0.847 5.05768 0.914947
4428.29 0.852555 0.848079 5.04886 0.915097
4428.65 0.852898 0.848962 5.04006 0.915247
4429.02 0.853793 0.849649 5.0388 0.915397
4429.38 0.855276 0.850104 5.0426 0.915546
4429.74 0.856466 0.850243 5.04556 0.915694
4430.1 0.856894 0.849968 5.04201 0.915843
4430.47 0.857324 0.849201 5.03847 0.91599
4430.83 0.858645 0.847915 5.03351 0.916138
4431.19 0.86051 0.846119 5.02774 0.916285
4431.55 0.86169 0.843826 5.02452 0.916431
4431.92 0.861082 0.841027 5.03585 0.916577
4432.28 0.857949 0.837712 5.04723 0.916722
4432.64 0.851725 0.83391 5.07656 0.916867
4433.0 0.843149 0.829748 5.11521 0.917011
4433.37 0.8338 0.825475 5.15565 0.917154
4433.73 0.825037 0.82144 5.20261 0.917297
4434.09 0.817679 0.818026 5.25022 0.917439
4434.46 0.812381 0.815576 5.27924 0.91758
4434.82 0.808952 0.814355 5.30041 0.91772
4435.18 0.806704 0.814531 5.31703 0.917859
4435.54 0.805396 0.816203 5.31754 0.917998
4435.91 0.805725 0.819421 5.31805 0.918136
4436.27 0.808447 0.824173 5.29867 0.918273
4436.63 0.813798 0.830355 5.27261 0.918409
4437.0 0.821734 0.837736 5.24105 0.918543
4437.36 0.831708 0.845948 5.19413 0.918677
4437.72 0.842237 0.854504 5.14783 0.91881
4438.09 0.85184 0.862855 5.10273 0.918942
4438.45 0.859844 0.870471 5.05838 0.919073
4438.81 0.865957 0.876889 5.02257 0.919202
4439.17 0.870281 0.88176 5.00498 0.919331
4439.54 0.873559 0.884883 4.98748 0.919458
4439.9 0.876502 0.886217 4.96949 0.919584
4440.26 0.879184 0.885875 4.95147 0.919709
4440.63 0.881409 0.88411 4.93937 0.919832
4440.99 0.882776 0.881271 4.93801 0.919955
4441.35 0.882583 0.877762 4.93665 0.920075
4441.72 0.880207 0.873993 4.95571 0.920195
4442.08 0.875653 0.870359 4.97781 0.920313
4442.44 0.869177 0.867235 5.00671 0.92043
4442.81 0.862207 0.864975 5.046 0.920545
4443.17 0.857691 0.863888 5.08576 0.920658
4443.54 0.857937 0.864203 5.07229 0.920771
4443.9 0.861509 0.866029 5.05444 0.920881
4444.26 0.865841 0.86933 5.0367 0.92099
4444.63 0.869938 0.873923 5.01906 0.921098
4444.99 0.874613 0.879522 5.00153 0.921204
4445.35 0.880631 0.885787 4.97302 0.921308
4445.72 0.888121 0.89236 4.94445 0.92141
4446.08 0.897012 0.898889 4.91272 0.921511
4446.44 0.906514 0.905047 4.87792 0.92161
4446.81 0.915117 0.910552 4.84373 0.921707
4447.17 0.921516 0.915191 4.82004 0.921802
4447.54 0.9253 0.918849 4.79652 0.921896
4447.9 0.926296 0.921507 4.79229 0.921987
4448.26 0.924968 0.923213 4.80374 0.922077
4448.63 0.922335 0.924029 4.81564 0.922165
4448.99 0.919304 0.923983 4.83247 0.922251
4449.36 0.916365 0.923057 4.84939 0.922334
4449.72 0.913894 0.921213 4.86523 0.922416
4450.08 0.911783 0.918429 4.88039 0.922496
4450.45 0.909556 0.914721 4.89579 0.922573
4450.81 0.906713 0.910146 4.91245 0.922649
4451.18 0.902706 0.904773 4.92919 0.922722
4451.54 0.897039 0.898654 4.95349 0.922793
4451.91 0.889938 0.891805 4.98182 0.922862
4452.27 0.882091 0.884234 5.01394 0.922929
4452.63 0.873714 0.875983 5.06163 0.922993
4453.0 0.863905 0.867157 5.11001 0.923055
4453.36 0.851861 0.857918 5.16749 0.923115
4453.73 0.839195 0.848476 5.22928 0.923172
4454.09 0.828863 0.839068 5.28405 0.923227
4454.46 0.822436 0.829932 5.31504 0.923279
4454.82 0.818767 0.8213 5.3463 0.92333
4455.18 0.816327 0.813404 5.36845 0.923377
4455.55 0.813042 0.806442 5.38808 0.923423
4455.91 0.806616 0.800542 5.41836 0.923466
4456.28 0.79714 0.795737 5.47246 0.923506
4456.64 0.788634 0.791957 5.52737 0.923545
4457.01 0.784725 0.789072 5.54651 0.923581
4457.37 0.784138 0.786933 5.55896 0.923615
4457.74 0.783695 0.785413 5.5745 0.923647
4458.1 0.782035 0.784425 5.5952 0.923676
4458.47 0.780326 0.783906 5.61602 0.923704
4458.83 0.779727 0.783806 5.61622 0.923729
4459.2 0.780382 0.784086 5.61433 0.923753
4459.56 0.782093 0.784738 5.60577 0.923774
4459.93 0.784443 0.785804 5.58883 0.923793
4460.29 0.786757 0.787364 5.57197 0.923811
4460.66 0.788678 0.78951 5.55797 0.923826
4461.02 0.791277 0.792324 5.54409 0.92384
4461.39 0.795975 0.79586 5.50841 0.923851
4461.75 0.803362 0.800144 5.45228 0.923861
4462.12 0.813218 0.805181 5.39712 0.923869
4462.48 0.824881 0.810957 5.34546 0.923875
4462.85 0.836248 0.8174 5.29454 0.92388
4463.21 0.844995 0.824349 5.26129 0.923882
4463.58 0.850401 0.831555 5.24066 0.923883
4463.94 0.853047 0.838714 5.2219 0.923882
4464.31 0.853844 0.845547 5.21694 0.92388
4464.67 0.854523 0.851857 5.21199 0.923876
4465.04 0.856845 0.857549 5.20062 0.923871
4465.4 0.861059 0.862592 5.18583 0.923864
4465.77 0.866399 0.86696 5.1713 0.923855
4466.13 0.87176 0.870598 5.15773 0.923845
4466.5 0.875301 0.873432 5.14421 0.923833
4466.86 0.875337 0.875422 5.15138 0.92382
4467.23 0.872703 0.876625 5.16652 0.923806
4467.6 0.869621 0.877212 5.17948 0.92379
4467.96 0.867661 0.877446 5.18608 0.923773
4468.33 0.867137 0.877628 5.19269 0.923755
4468.69 0.868124 0.878041 5.19177 0.923735
4469.06 0.869957 0.878913 5.18895 0.923714
4469.42 0.871649 0.880413 5.18591 0.923692
4469.79 0.87291 0.882651 5.18246 0.923669
4470.15 0.874522 0.885675 5.17901 0.923644
4470.52 0.877397 0.889487 5.15528 0.923619
4470.89 0.882664 0.894044 5.12887 0.923592
4471.25 0.891484 0.899268 5.08544 0.923564
4471.62 0.90344 0.905059 5.01885 0.923535
4471.98 0.916137 0.911305 4.95354 0.923506
4472.35 0.927396 0.917873 4.90919 0.923475
4472.72 0.936567 0.924607 4.86633 0.923443
4473.08 0.943469 0.931335 4.83505 0.92341
4473.45 0.948581 0.937889 4.81518 0.923377
4473.81 0.953057 0.944117 4.79567 0.923343
4474.18 0.957742 0.949904 4.78249 0.923307
4474.55 0.962282 0.955174 4.76937 0.923271
4474.91 0.966074 0.959891 4.76727 0.923235
4475.28 0.968858 0.96403 4.77318 0.923197
4475.64 0.970649 0.967551 4.77753 0.923159
4476.01 0.971569 0.970379 4.77045 0.92312
4476.38 0.97201 0.972384 4.76339 0.92308
4476.74 0.972364 0.973393 4.7623 0.92304
4477.11 0.972487 0.973213 4.76422 0.922999
4477.48 0.971884 0.97169 4.76937 0.922958
4477.84 0.970047 0.968757 4.78694 0.922916
4478.21 0.966449 0.964464 4.80461 0.922874
4478.57 0.960664 0.958964 4.83393 0.922831
4478.94 0.953158 0.952485 4.86742 0.922788
4479.31 0.944851 0.945307 4.90313 0.922745
4479.67 0.936499 0.937742 4.9438 0.922701
4480.04 0.928569 0.930141 4.98497 0.922656
4480.41 0.92144 0.922894 5.016 0.922612
4480.77 0.915124 0.916414 5.04524 0.922567
4481.14 0.909491 0.911092 5.06958 0.922521
4481.51 0.904591 0.907252 5.08572 0.922476
4481.87 0.900726 0.905131 5.10194 0.922431
4482.24 0.898254 0.904862 5.10248 0.922385
4482.61 0.897725 0.906472 5.1018 0.922339
4482.97 0.899735 0.90988 5.09115 0.922293
4483.34 0.904603 0.914882 5.06954 0.922247
4483.71 0.912348 0.921155 5.04745 0.922201
4484.07 0.922683 0.928275 4.99634 0.922155
4484.44 0.934229 0.935755 4.94599 0.922109
4484.81 0.945372 0.943101 4.90249 0.922063
4485.18 0.954858 0.94986 4.86413 0.922017
4485.54 0.961737 0.955627 4.8296 0.921971
4485.91 0.965451 0.960066 4.82127 0.921925
4486.28 0.966533 0.962921 4.81297 0.92188
4486.64 0.965723 0.964046 4.81797 0.921834
4487.01 0.963911 0.963428 4.82977 0.921789
4487.38 0.962087 0.961203 4.84074 0.921744
4487.74 0.960703 0.957646 4.84846 0.9217
4488.11 0.959055 0.953123 4.8562 0.921655
4488.48 0.956319 0.94803 4.87147 0.921612
4488.85 0.951942 0.942734 4.8892 0.921568
4489.21 0.94552 0.937554 4.9126 0.921525
4489.58 0.937594 0.932747 4.94873 0.921482
4489.95 0.930265 0.928503 4.98527 0.92144
4490.32 0.925455 0.924935 5.00852 0.921398
4490.68 0.923094 0.922077 5.02968 0.921357
4491.05 0.922347 0.919875 5.04457 0.921317
4491.42 0.921905 0.918196 5.05024 0.921277
4491.79 0.919863 0.916864 5.05593 0.921237
4492.15 0.915221 0.915699 5.07002 0.921199
4492.52 0.91123 0.914552 5.08451 0.921161
4492.89 0.912108 0.9133 5.08483 0.921123
4493.26 0.917064 0.911871 5.07161 0.921087
4493.62 0.920448 0.910253 5.06063 0.921051
4493.99 0.918259 0.908523 5.08186 0.921016
4494.36 0.912606 0.906858 5.10322 0.920982
4494.73 0.906775 0.905524 5.11685 0.920948
4495.09 0.902818 0.904811 5.1256 0.920916
4495.46 0.901871 0.904949 5.13102 0.920885
4495.83 0.904079 0.906058 5.11989 0.920854
4496.2 0.907222 0.908137 5.1088 0.920825
4496.57 0.90902 0.911122 5.10665 0.920796
4496.93 0.909997 0.91493 5.10794 0.920769
4497.3 0.912223 0.919492 5.10242 0.920742
4497.67 0.916842 0.924728 5.07911 0.920717
4498.04 0.92328 0.930512 5.05597 0.920693
4498.41 0.930793 0.93665 5.02268 0.92067
4498.77 0.938707 0.942913 4.98763 0.920648
4499.14 0.946379 0.949099 4.95432 0.920627
4499.51 0.95338 0.95508 4.92352 0.920608
4499.88 0.959566 0.960819 4.893 0.92059
4500.25 0.964893 0.966349 4.87225 0.920573
4500.61 0.969685 0.971727 4.85224 0.920558
4500.98 0.974372 0.97701 4.83471 0.920544
4501.35 0.979234 0.982248 4.81968 0.920531
4501.72 0.984401 0.987492 4.8043 0.92052
4502.09 0.989924 0.992793 4.78176 0.92051
4502.46 0.995603 0.998173 4.75937 0.920502
4502.82 1.0012 1.0036 4.73552 0.920495
4503.19 1.00683 1.00899 4.71081 0.92049
4503.56 1.01282 1.01419 4.6868 0.920486
4503.93 1.01922 1.01903 4.66546 0.920483
4504.3 1.02525 1.02338 4.64426 0.920482
4504.67 1.03 1.02716 4.6319 0.920482
4505.04 1.03212 1.0303 4.62291 0.920483
4505.4 1.03007 1.03278 4.62322 0.920486
4505.77 1.02481 1.03455 4.64729 0.92049
4506.14 1.02186 1.03561 4.67155 0.920496
4506.51 1.02596 1.03594 4.66315 0.920503
4506.88 1.03414 1.0356 4.6486 0.920511
4507.25 1.04038 1.03471 4.64121 0.920521
4507.62 1.04173 1.03343 4.64451 0.920531
4507.99 1.03919 1.03195 4.64781 0.920544
4508.35 1.03423 1.03039 4.66098 0.920557
4508.72 1.02917 1.02883 4.67462 0.920572
4509.09 1.02651 1.02721 4.68626 0.920588
4509.46 1.02632 1.02545 4.69604 0.920605
4509.83 1.02643 1.02344 4.7048 0.920624
4510.2 1.02516 1.02111 4.7016 0.920643
4510.57 1.0227 1.01843 4.6984 0.920665
4510.94 1.0196 1.0154 4.71071 0.920687
4511.31 1.01579 1.01205 4.73182 0.92071
4511.67 1.01081 1.00841 4.75404 0.920735
4512.04 1.00462 1.0045 4.78024 0.920761
4512.41 0.99812 1.00038 4.80666 0.920788
4512.78 0.992278 0.99613 4.82925 0.920817
4513.15 0.987638 0.991867 4.85074 0.920846
4513.52 0.984513 0.987708 4.86909 0.920877
4513.89 0.982278 0.983767 4.88078 0.920909
4514.26 0.978827 0.980125 4.89251 0.920942
4514.63 0.972547 0.976832 4.9201 0.920976
4515.0 0.965284 0.973939 4.94989 0.921012
4515.37 0.960029 0.971524 4.96488 0.921048
4515.74 0.958111 0.969682 4.96184 0.921086
4516.11 0.958991 0.968504 4.95861 0.921124
4516.48 0.961943 0.968031 4.94481 0.921164
4516.85 0.965929 0.96823 4.93107 0.921205
4517.22 0.969856 0.969002 4.91882 0.921247
4517.58 0.973035 0.970225 4.90766 0.921291
4517.95 0.975091 0.971805 4.89837 0.921335
4518.32 0.975932 0.973694 4.89975 0.92138
4518.69 0.976157 0.975858 4.90113 0.921427
4519.06 0.976445 0.978217 4.89996 0.921474
4519.43 0.977154 0.980598 4.89777 0.921522
4519.8 0.978456 0.98275 4.89473 0.921572
4520.17 0.980357 0.984411 4.88948 0.921623
4520.54 0.982569 0.985392 4.88425 0.921674
4520.91 0.984772 0.985597 4.88092 0.921727
4521.28 0.98665 0.984995 4.87795 0.92178
4521.65 0.987885 0.983552 4.87781 0.921835
4522.02 0.988199 0.981191 4.8817 0.92189
4522.39 0.987358 0.977791 4.88559 0.921947
4522.76 0.985028 0.973244 4.90123 0.922005
4523.13 0.980447 0.967518 4.91719 0.922063
4523.5 0.972805 0.960681 4.9539 0.922122
4523.87 0.962605 0.952863 5.00839 0.922183
4524.24 0.951504 0.944216 5.06306 0.922244
4524.61 0.940759 0.934884 5.11301 0.922306
4524.98 0.93037 0.925015 5.16372 0.92237
4525.35 0.920126 0.91477 5.21399 0.922434
4525.72 0.909894 0.904341 5.26445 0.922499
4526.09 0.899593 0.893963 5.31508 0.922565
4526.46 0.88945 0.883908 5.36473 0.922631
4526.83 0.880272 0.874441 5.41509 0.922699
4527.21 0.872742 0.865794 5.44829 0.922767
4527.58 0.866216 0.858158 5.47796 0.922837
4527.95 0.859519 0.85167 5.51119 0.922907
4528.32 0.852496 0.846425 5.54985 0.922978
4528.69 0.846343 0.842497 5.58893 0.92305
4529.06 0.842095 0.839942 5.60596 0.923123
4529.43 0.839676 0.838762 5.62226 0.923196
4529.8 0.838701 0.838854 5.63009 0.923271
4530.17 0.838754 0.839989 5.63055 0.923346
4530.54 0.839391 0.841855 5.63038 0.923422
4530.91 0.840499 0.844136 5.62505 0.923499
4531.28 0.842922 0.846599 5.61974 0.923576
4531.65 0.847475 0.84913 5.6026 0.923655
4532.02 0.852723 0.851698 5.58001 0.923734
4532.39 0.855847 0.854283 5.56387 0.923814
4532.76 0.855684 0.856831 5.5664 0.923894
4533.14 0.854298 0.859302 5.56893 0.923975
4533.51 0.853938 0.861735 5.56177 0.924057
4533.88 0.855559 0.864311 5.55258 0.92414
4534.25 0.859568 0.86733 5.53669 0.924224
4534.62 0.865687 0.871109 5.51085 0.924308
4534.99 0.872756 0.875872 5.48519 0.924393
4535.36 0.879807 0.881691 5.44978 0.924478
4535.73 0.886946 0.888488 5.41446 0.924565
4536.1 0.894553 0.896092 5.37363 0.924652
4536.47 0.902704 0.904301 5.32851 0.924739
4536.85 0.911204 0.912882 5.28448 0.924827
4537.22 0.919871 0.921569 5.24471 0.924916
4537.59 0.928584 0.93005 5.20538 0.925006
4537.96 0.937223 0.938011 5.1683 0.925096
4538.33 0.945561 0.945185 5.13238 0.925187
4538.7 0.953309 0.9514 5.09821 0.925278
4539.07 0.960168 0.956578 5.06797 0.92537
4539.45 0.965828 0.960716 5.03799 0.925462
4539.82 0.970006 0.963845 5.01892 0.925556
4540.19 0.972625 0.966003 5.0018 0.925649
4540.56 0.973689 0.967235 4.99443 0.925744
4540.93 0.973429 0.96763 4.99995 0.925839
4541.3 0.972344 0.967322 5.00552 0.925934
4541.67 0.970879 0.96648 5.01584 0.92603
4542.05 0.9692 0.965285 5.02619 0.926126
4542.42 0.967397 0.963909 5.03991 0.926223
4542.79 0.965401 0.962473 5.05607 0.926321
4543.16 0.963021 0.961028 5.07318 0.926419
4543.53 0.960071 0.959563 5.09486 0.926518
4543.9 0.95639 0.958028 5.11669 0.926617
4544.28 0.951957 0.956373 5.13695 0.926716
4544.65 0.947947 0.954587 5.15674 0.926816
4545.02 0.946145 0.952725 5.17054 0.926917
4545.39 0.946722 0.950874 5.17153 0.927018
4545.76 0.947258 0.949104 5.17253 0.927119
4546.14 0.945537 0.947419 5.18625 0.927221
4546.51 0.941683 0.945748 5.20143 0.927323
4546.88 0.936625 0.943998 5.2184 0.927426
4547.25 0.931792 0.94213 5.23732 0.927529
4547.62 0.92914 0.940209 5.25523 0.927633
4548.0 0.929968 0.938384 5.25651 0.927736
4548.37 0.93331 0.936823 5.25779 0.927841
4548.74 0.937715 0.935635 5.24068 0.927946
4549.11 0.941504 0.934833 5.21359 0.928051
4549.48 0.942845 0.934354 5.19577 0.928156
4549.86 0.940896 0.934121 5.20905 0.928262
4550.23 0.936883 0.934085 5.22239 0.928368
4550.6 0.932239 0.934213 5.24251 0.928475
4550.97 0.928081 0.934463 5.26436 0.928582
4551.35 0.925365 0.934759 5.28308 0.928689
4551.72 0.924417 0.935018 5.29678 0.928797
4552.09 0.924722 0.935191 5.31054 0.928905
4552.46 0.925705 0.935308 5.30672 0.929013
4552.84 0.926792 0.935489 5.30244 0.929122
4553.21 0.927454 0.935914 5.30142 0.929231
4553.58 0.927971 0.936767 5.30297 0.929341
4553.95 0.929314 0.938204 5.30176 0.929451
4554.33 0.932192 0.940342 5.28405 0.929561
4554.7 0.936554 0.943264 5.26642 0.929672
4555.07 0.942214 0.947029 5.24063 0.929783
4555.44 0.948863 0.95167 5.21195 0.929894
4555.82 0.956126 0.957182 5.18197 0.930006
4556.19 0.963784 0.963507 5.14888 0.930118
4556.56 0.971885 0.970514 5.11611 0.93023
4556.93 0.98038 0.978005 5.07768 0.930343
4557.31 0.98859 0.985729 5.03902 0.930457
4557.68 0.995648 0.993414 5.00616 0.93057
4558.05 1.00135 1.00081 4.97929 0.930684
4558.43 1.00618 1.00771 4.95305 0.930799
4558.8 1.0106 1.01397 4.93238 0.930914
4559.17 1.01486 1.01945 4.91184 0.931029
4559.55 1.01914 1.024 4.89404 0.931144
4559.92 1.02334 1.02743 4.87769 0.93126
4560.29 1.02717 1.02959 4.86219 0.931377
4560.66 1.03028 1.03034 4.84917 0.931493
4561.04 1.03219 1.02972 4.83619 0.93161
4561.41 1.03247 1.02786 4.83659 0.931728
4561.78 1.03104 1.02498 4.83965 0.931846
4562.16 1.02796 1.02135 4.8483 0.931964
4562.53 1.02346 1.01717 4.86463 0.932083
4562.9 1.01799 1.01262 4.88109 0.932202
4563.28 1.01205 1.0079 4.90034 0.932321
4563.65 1.00623 1.00326 4.91971 0.932441
4564.02 1.00117 0.99904 4.93618 0.932561
4564.4 0.997324 0.995613 4.95072 0.932681
4564.77 0.995037 0.993301 4.96277 0.932802
4565.14 0.994406 0.992289 4.96402 0.932924
4565.52 0.994956 0.992583 4.96528 0.933045
4565.89 0.99617 0.994031 4.95912 0.933167
4566.27 0.997817 0.996386 4.9509 0.93329
4566.64 0.999806 0.999382 4.94012 0.933413
4567.01 1.0023 1.00277 4.92504 0.933536
4567.39 1.00581 1.00631 4.91003 0.93366
4567.76 1.0107 1.00979 4.89416 0.933784
4568.13 1.01653 1.01294 4.87832 0.933908
4568.51 1.02258 1.01553 4.86612 0.934033
4568.88 1.02724 1.01739 4.85682 0.934158
4569.26 1.02807 1.01844 4.85116 0.934284
4569.63 1.02421 1.01874 4.86642 0.93441
4570.0 1.01884 1.01845 4.88175 0.934536
4570.38 1.01545 1.01776 4.89582 0.934663
4570.75 1.01434 1.01687 4.90947 0.93479
4571.12 1.01412 1.01596 4.92138 0.934917
4571.5 1.01391 1.0152 4.92969 0.935045
4571.87 1.01361 1.01472 4.93803 0.935174
4572.25 1.01331 1.0147 4.94021 0.935302
4572.62 1.01377 1.01524 4.94191 0.935431
4573.0 1.01584 1.01635 4.94012 0.935561
4573.37 1.01896 1.01794 4.93514 0.935691
4573.74 1.02118 1.01984 4.93043 0.935821
4574.12 1.02151 1.02183 4.92763 0.935952
4574.49 1.02177 1.0237 4.92484 0.936083
4574.87 1.02407 1.02529 4.91035 0.936214
4575.24 1.02803 1.02644 4.8912 0.936346
4575.61 1.03188 1.027 4.87605 0.936478
4575.99 1.03407 1.0268 4.86968 0.936611
4576.36 1.03352 1.02565 4.86333 0.936744
4576.74 1.02951 1.02342 4.88057 0.936877
4577.11 1.02323 1.02007 4.90045 0.937011
4577.49 1.01646 1.01567 4.92208 0.937146
4577.86 1.01004 1.01039 4.94549 0.93728
4578.24 1.00383 1.00448 4.96947 0.937415
4578.61 0.997762 0.998223 4.99736 0.937551
4578.99 0.992087 0.991882 5.0255 0.937687
4579.36 0.987058 0.985715 5.0495 0.937823
4579.73 0.982556 0.979946 5.07174 0.937959
4580.11 0.97824 0.974759 5.09334 0.938096
4580.48 0.97381 0.970292 5.11315 0.938234
4580.86 0.969054 0.966638 5.13308 0.938372
4581.23 0.963887 0.963857 5.15726 0.93851
4581.61 0.958867 0.96197 5.18213 0.938649
4581.98 0.954777 0.960957 5.19952 0.938788
4582.36 0.95242 0.96073 5.209 0.938927
4582.73 0.952615 0.96114 5.21654 0.939067
4583.11 0.955763 0.962008 5.20407 0.939207
4583.48 0.960967 0.963183 5.19164 0.939348
4583.86 0.967095 0.964599 5.17583 0.939489
4584.23 0.973113 0.966294 5.15857 0.939631
4584.61 0.978051 0.968371 5.1426 0.939773
4584.98 0.981368 0.970926 5.12964 0.939915
4585.36 0.983268 0.973996 5.11674 0.940058
4585.73 0.984128 0.977554 5.10896 0.940201
4586.11 0.984871 0.981532 5.10182 0.940344
4586.48 0.986576 0.985855 5.09082 0.940488
4586.86 0.989561 0.990456 5.07588 0.940633
4587.24 0.993364 0.995252 5.06055 0.940777
4587.61 0.997535 1.0001 5.04086 0.940922
4587.99 1.00177 1.00481 5.02128 0.941068
4588.36 1.00578 1.00913 5.00063 0.941214
4588.74 1.00941 1.01283 4.97959 0.94136
4589.11 1.01251 1.01569 4.95963 0.941507
4589.49 1.01484 1.01759 4.942 0.941654
4589.86 1.01597 1.01847 4.92446 0.941802
4590.24 1.01562 1.01833 4.93644 0.94195
4590.61 1.01451 1.01723 4.9517 0.942099
4590.99 1.01365 1.01527 4.96812 0.942248
4591.37 1.01291 1.01257 4.98569 0.942397
4591.74 1.011 1.00924 5.00433 0.942547
4592.12 1.00697 1.00542 5.03111 0.942697
4592.49 1.00102 1.00127 5.0581 0.942847
4592.87 0.993625 0.997002 5.08937 0.942998
4593.24 0.986283 0.992844 5.12259 0.943149
4593.62 0.981056 0.989022 5.15132 0.943301
4594.0 0.978381 0.985721 5.16998 0.943453
4594.37 0.976078 0.98304 5.18874 0.943606
4594.75 0.972357 0.980986 5.19473 0.943759
4595.12 0.968601 0.97952 5.19967 0.943913
4595.5 0.967106 0.9786 5.19697 0.944066
4595.88 0.968616 0.978203 5.18753 0.944221
4596.25 0.972441 0.978313 5.17735 0.944375
4596.63 0.977615 0.978886 5.16244 0.944531
4597.0 0.982581 0.979814 5.14759 0.944686
4597.38 0.985842 0.980927 5.13664 0.944842
4597.76 0.987299 0.982052 5.12706 0.944998
4598.13 0.98759 0.983079 5.12252 0.945155
4598.51 0.987335 0.983989 5.12727 0.945312
4598.88 0.987122 0.984826 5.13203 0.94547
4599.26 0.987455 0.985633 5.13175 0.945628
4599.64 0.988452 0.986406 5.13125 0.945786
4600.01 0.99011 0.987101 5.12664 0.945945
4600.39 0.992173 0.987684 5.11892 0.946104
4600.77 0.994175 0.98819 5.11078 0.946263
4601.14 0.995681 0.988719 5.10066 0.946423
4601.52 0.996343 0.989379 5.09056 0.946583
4601.9 0.995932 0.990224 5.09249 0.946743
4602.27 0.99503 0.991222 5.09769 0.946903
4602.65 0.994588 0.992311 5.09925 0.947064
4603.03 0.995266 0.993481 5.09522 0.947225
4603.4 0.997345 0.994823 5.09118 0.947386
4603.78 1.00087 0.996505 5.08313 0.947547
4604.16 1.00509 0.998695 5.0751 0.947709
4604.53 1.00909 1.00151 5.06699 0.94787
4604.91 1.01227 1.00496 5.05886 0.948032
4605.29 1.01431 1.00905 5.05125 0.948194
4605.66 1.01563 1.01376 5.0454 0.948356
4606.04 1.01819 1.01909 5.03955 0.948519
4606.42 1.02376 1.02504 5.00856 0.948681
4606.79 1.03174 1.03153 4.97309 0.948844
4607.17 1.04059 1.03839 4.9385 0.949006
4607.55 1.04923 1.04534 4.90487 0.949169
4607.92 1.05715 1.0521 4.87211 0.949332
4608.3 1.06395 1.05836 4.84735 0.949494
4608.68 1.06953 1.06392 4.82277 0.949657
4609.06 1.07387 1.06864 4.80578 0.94982
4609.43 1.07707 1.07245 4.79241 0.949983
4609.81 1.07933 1.07532 4.78178 0.950146
4610.19 1.08082 1.0772 4.77777 0.950309
4610.56 1.08173 1.07809 4.77377 0.950472
4610.94 1.08221 1.078 4.77218 0.950635
4611.32 1.08214 1.07707 4.77083 0.950797
4611.7 1.08138 1.07554 4.77382 0.95096
4612.07 1.07982 1.07371 4.78083 0.951123
4612.45 1.07744 1.07189 4.78891 0.951285
4612.83 1.07431 1.07031 4.8038 0.951448
4613.21 1.07074 1.06907 4.81876 0.95161
4613.58 1.06711 1.0682 4.83763 0.951772
4613.96 1.06404 1.06769 4.8579 0.951934
4614.34 1.06231 1.06758 4.87049 0.952096
4614.72 1.06225 1.06788 4.86953 0.952258
4615.09 1.06357 1.06863 4.86857 0.952419
4615.47 1.06595 1.06977 4.85805 0.952581
4615.85 1.06908 1.07119 4.84738 0.952742
4616.23 1.07264 1.07276 4.83431 0.952903
4616.6 1.07626 1.07433 4.81967 0.953063
4616.98 1.07949 1.07578 4.80551 0.953224
4617.36 1.08193 1.07706 4.79299 0.953384
4617.74 1.08321 1.07813 4.7805 0.953544
4618.11 1.08307 1.07899 4.7806 0.953703
4618.49 1.08179 1.07964 4.78321 0.953862
4618.87 1.07992 1.08013 4.78809 0.954021
4619.25 1.07818 1.08054 4.79572 0.95418
4619.63 1.07751 1.08096 4.80284 0.954338
4620.0 1.07846 1.08147 4.80261 0.954496
4620.38 1.0803 1.08207 4.80238 0.954654
4620.76 1.08202 1.0827 4.8009 0.954811
4621.14 1.08253 1.08326 4.79886 0.954968
4621.52 1.08076 1.08363 4.80124 0.955124
4621.89 1.07708 1.08374 4.81357 0.95528
4622.27 1.07424 1.0836 4.82595 0.955436
4622.65 1.07467 1.08329 4.81443 0.955591
4623.03 1.07794 1.08293 4.80109 0.955746
4623.41 1.08272 1.08259 4.7892 0.9559
4623.79 1.08734 1.08223 4.77849 0.956053
4624.16 1.08982 1.08177 4.77062 0.956207
4624.54 1.08884 1.08111 4.77655 0.956359
4624.92 1.08458 1.08019 4.78249 0.956511
4625.3 1.0778 1.07909 4.80453 0.956663
4625.68 1.0715 1.07796 4.83102 0.956814
4626.06 1.06967 1.07697 4.8417 0.956965
4626.43 1.07243 1.07627 4.82962 0.957115
4626.81 1.07509 1.07589 4.81849 0.957264
4627.19 1.07404 1.07577 4.83231 0.957413
4627.57 1.07079 1.07581 4.84619 0.957561
4627.95 1.06788 1.07593 4.85819 0.957708
4628.33 1.06647 1.07607 4.86922 0.957855
4628.71 1.06681 1.07623 4.87781 0.958001
4629.09 1.06825 1.07642 4.88005 0.958147
4629.46 1.06858 1.07667 4.88229 0.958292
4629.84 1.06615 1.07691 4.88682 0.958436
4630.22 1.06321 1.07708 4.89159 0.958579
4630.6 1.06317 1.07707 4.88529 0.958722
4630.98 1.06643 1.07675 4.86917 0.958864
4631.36 1.07058 1.07599 4.85602 0.959005
4631.74 1.07361 1.07472 4.85887 0.959146
4632.12 1.0747 1.0729 4.86173 0.959285
4632.5 1.07339 1.07058 4.87586 0.959424
4632.87 1.07008 1.06788 4.89329 0.959562
4633.25 1.06563 1.06492 4.91211 0.9597
4633.63 1.06085 1.06182 4.93298 0.959836
4634.01 1.05648 1.05859 4.9539 0.959972
4634.39 1.05309 1.05516 4.97198 0.960106
4634.77 1.0505 1.05143 4.99016 0.96024
4635.15 1.04835 1.04733 5.00361 0.960373
4635.53 1.04598 1.04293 5.0146 0.960505
4635.91 1.04254 1.03839 5.02662 0.960637
4636.29 1.0376 1.03391 5.04125 0.960767
4636.67 1.03154 1.02968 5.05594 0.960896
4637.05 1.02501 1.02577 5.07528 0.961025
4637.42 1.01953 1.02219 5.09518 0.961152
4637.8 1.01682 1.01894 5.10379 0.961279
4638.18 1.01624 1.01608 5.10265 0.961404
4638.56 1.01511 1.01371 5.10432 0.961529
4638.94 1.01177 1.01197 5.12008 0.961652
4639.32 1.00727 1.01093 5.13592 0.961775
4639.7 1.00307 1.01062 5.14767 0.961896
4640.08 1.00022 1.01097 5.1584 0.962017
4640.46 0.999616 1.01182 5.16377 0.962136
4640.84 1.00148 1.01301 5.16186 0.962255
4641.22 1.00525 1.01433 5.15902 0.962372
4641.6 1.01003 1.01554 5.14027 0.962488
4641.98 1.01399 1.01639 5.12161 0.962603
4642.36 1.01528 1.01661 5.12328 0.962717
4642.74 1.01392 1.01598 5.13431 0.962829
4643.12 1.01112 1.01438 5.14747 0.962941
4643.5 1.00773 1.01175 5.16524 0.963051
4643.88 1.00409 1.00817 5.1831 0.963161
4644.26 1.00039 1.00376 5.20199 0.963269
4644.64 0.996533 0.998711 5.22104 0.963375
4645.02 0.992337 0.993219 5.2383 0.963481
4645.4 0.987758 0.987496 5.25425 0.963585
4645.78 0.982866 0.981783 5.2703 0.963688
4646.16 0.977967 0.976375 5.2865 0.96379
4646.54 0.973879 0.971617 5.30278 0.963891
4646.92 0.971326 0.967877 5.31358 0.96399
4647.3 0.969985 0.965472 5.32337 0.964088
4647.68 0.969131 0.964604 5.33269 0.964185
4648.06 0.968382 0.965321 5.34148 0.964281
4648.44 0.967722 0.96752 5.34968 0.964376
4648.82 0.967417 0.970996 5.35287 0.96447
4649.2 0.968505 0.975522 5.35606 0.964562
4649.58 0.972076 0.980882 5.32906 0.964654
4649.96 0.978474 0.98687 5.29191 0.964744
4650.34 0.987628 0.993246 5.25035 0.964834
4650.72 0.998531 0.999706 5.20144 0.964923
4651.1 1.00888 1.00588 5.15348 0.96501
4651.48 1.01673 1.01142 5.12901 0.965097
4651.87 1.02176 1.01604 5.10471 0.965183
4652.25 1.02417 1.01962 5.09431 0.965269
4652.63 1.025 1.0222 5.09145 0.965353
4653.01 1.0259 1.0239 5.08897 0.965437
4653.39 1.02752 1.02489 5.08745 0.96552
4653.77 1.02877 1.02532 5.08593 0.965602
4654.15 1.02854 1.02538 5.09313 0.965684
4654.53 1.0267 1.02531 5.10113 0.965765
4654.91 1.0234 1.02539 5.11339 0.965845
4655.29 1.01951 1.02596 5.12911 0.965925
4655.67 1.01647 1.02731 5.14141 0.966004
4656.05 1.01559 1.02962 5.13901 0.966083
4656.43 1.01784 1.03301 5.13661 0.966161
4656.82 1.02391 1.03747 5.09922 0.966239
4657.2 1.03294 1.04291 5.05515 0.966317
4657.58 1.0434 1.04917 5.01925 0.966394
4657.96 1.05397 1.05598 4.99232 0.96647
4658.34 1.06354 1.06299 4.96585 0.966547
4658.72 1.07124 1.06977 4.94173 0.966623
4659.1 1.07693 1.07591 4.91778 0.966698
4659.48 1.08067 1.08104 4.89766 0.966774
4659.87 1.08306 1.08491 4.8789 0.966849
4660.25 1.08499 1.08735 4.86247 0.966924
4660.63 1.08734 1.08825 4.84968 0.966999
4661.01 1.09098 1.08754 4.83703 0.967074
4661.39 1.09588 1.08521 4.82782 0.967149
4661.77 1.09866 1.08126 4.81864 0.967223
4662.15 1.09547 1.07577 4.84205 0.967298
4662.53 1.08611 1.06886 4.88239 0.967372
4662.92 1.07269 1.06068 4.92688 0.967447
4663.3 1.05737 1.05144 4.98045 0.967522
4663.68 1.04223 1.04132 5.03491 0.967597
4664.06 1.02908 1.03057 5.08671 0.967671
4664.44 1.01845 1.01941 5.13911 0.967746
4664.82 1.01035 1.00808 5.18158 0.967822
4665.21 1.00352 0.996856 5.21695 0.967897
4665.59 0.995592 0.986 5.25619 0.967973
4665.97 0.985348 0.975813 5.30783 0.968049
4666.35 0.973892 0.966614 5.36025 0.968125
4666.73 0.962625 0.958727 5.40246 0.968201
4667.11 0.952986 0.952463 5.44355 0.968278
4667.5 0.946399 0.948084 5.47122 0.968355
4667.88 0.943623 0.945778 5.48596 0.968433
4668.26 0.94478 0.945618 5.49425 0.968511
4668.64 0.949269 0.947545 5.46791 0.96859
4669.02 0.954724 0.951364 5.44177 0.968669
4669.41 0.958915 0.956768 5.42579 0.968748
4669.79 0.962574 0.963398 5.41234 0.968828
4670.17 0.967712 0.970903 5.39076 0.968909
4670.55 0.975094 0.978973 5.35924 0.96899
4670.93 0.984037 0.987334 5.32706 0.969072
4671.32 0.993762 0.995726 5.28592 0.969155
4671.7 1.00345 1.00388 5.24526 0.969239
4672.08 1.01241 1.01152 5.20253 0.969323
4672.46 1.02105 1.01841 5.15943 0.969408
4672.85 1.03036 1.02443 5.11583 0.969493
4673.23 1.04001 1.02955 5.07115 0.96958
4673.61 1.04795 1.03383 5.0279 0.969667
4673.99 1.05251 1.03739 5.01473 0.969756
4674.38 1.05407 1.04032 5.00161 0.969845
4674.76 1.05348 1.04265 4.99815 0.969935
4675.14 1.0518 1.0444 4.99935 0.970026
4675.52 1.05023 1.04553 5.00181 0.970118
4675.91 1.04962 1.04601 5.00692 0.970212
4676.29 1.05029 1.04583 5.01204 0.970306
4676.67 1.05223 1.04499 5.00603 0.970401
4677.05 1.05402 1.0435 4.99968 0.970498
4677.44 1.05397 1.04141 5.00517 0.970595
4677.82 1.05158 1.03879 5.01805 0.970694
4678.2 1.04718 1.03575 5.0342 0.970794
4678.58 1.0413 1.03241 5.0594 0.970896
4678.97 1.03469 1.02887 5.08479 0.970998
4679.35 1.02811 1.02527 5.1136 0.971102
4679.73 1.0222 1.02175 5.14298 0.971207
4680.12 1.01751 1.01849 5.16465 0.971314
4680.5 1.01418 1.01573 5.18026 0.971422
4680.88 1.012 1.01367 5.19271 0.971531
4681.26 1.0108 1.01249 5.19325 0.971642
4681.65 1.01053 1.01226 5.19379 0.971755
4682.03 1.01114 1.01295 5.19032 0.971869
4682.41 1.01245 1.01447 5.18621 0.971984
4682.8 1.01426 1.01667 5.17991 0.972101
4683.18 1.01644 1.01941 5.17153 0.97222
4683.56 1.01889 1.02251 5.16232 0.97234
4683.95 1.02166 1.02582 5.14888 0.972462
4684.33 1.0251 1.02915 5.13548 0.972586
4684.71 1.02947 1.03233 5.11726 0.972711
4685.1 1.03438 1.03522 5.09804 0.972838
4685.48 1.03912 1.03768 5.08224 0.972967
4685.86 1.04291 1.03962 5.07024 0.973098
4686.25 1.04485 1.04098 5.06042 0.97323
4686.63 1.04435 1.04175 5.06614 0.973365
4687.01 1.04164 1.04195 5.07187 0.973501
4687.4 1.03729 1.04164 5.09528 0.973639
4687.78 1.03314 1.04097 5.12407 0.97378
4688.16 1.03158 1.04007 5.13758 0.973922
4688.55 1.03297 1.0391 5.13034 0.974066
4688.93 1.03514 1.03817 5.1232 0.974212
4689.31 1.0363 1.03735 5.11694 0.974361
4689.7 1.03633 1.03666 5.1107 0.974511
4690.08 1.0355 1.03612 5.10999 0.974664
4690.47 1.0344 1.03575 5.11127 0.974819
4690.85 1.03386 1.03565 5.11445 0.974976
4691.23 1.03453 1.03591 5.12062 0.975135
4691.62 1.03685 1.03667 5.12528 0.975297
4692.0 1.04087 1.03801 5.0977 0.975461
4692.39 1.04527 1.03994 5.07034 0.975627
4692.77 1.04857 1.04236 5.05669 0.975795
4693.15 1.05066 1.0451 5.04886 0.975966
4693.54 1.0522 1.04794 5.04012 0.97614
4693.92 1.05369 1.05069 5.02976 0.976315
4694.31 1.05542 1.05317 5.01939 0.976494
4694.69 1.0575 1.05524 5.00596 0.976674
4695.07 1.05949 1.05679 4.99259 0.976858
4695.46 1.06081 1.05767 4.99162 0.977043
4695.84 1.06118 1.05776 4.99676 0.977232
4696.23 1.06043 1.05694 4.99997 0.977423
4696.61 1.05854 1.05519 4.99924 0.977616
4696.99 1.05563 1.05252 4.9985 0.977812
4697.38 1.05182 1.04902 5.01687 0.97801
4697.76 1.04698 1.0448 5.03564 0.978211
4698.15 1.04097 1.03999 5.0655 0.978414
4698.53 1.03378 1.03476 5.10178 0.978619
4698.92 1.02555 1.0293 5.13894 0.978826
4699.3 1.01748 1.02386 5.17762 0.979036
4699.69 1.01262 1.01863 5.21674 0.979248
4700.07 1.01298 1.01376 5.20867 0.979461
4700.45 1.01517 1.00935 5.19873 0.979677
4700.84 1.01453 1.00548 5.20454 0.979895
4701.22 1.00987 1.0022 5.21999 0.980115
4701.61 1.00252 0.999609 5.23769 0.980337
4701.99 0.994473 0.997775 5.26109 0.98056
4702.38 0.988886 0.996739 5.28465 0.980786
4702.76 0.988148 0.99648 5.28307 0.981013
4703.15 0.990537 0.996916 5.27994 0.981242
4703.53 0.993252 0.997929 5.27478 0.981473
4703.92 0.995644 0.99938 5.26829 0.981705
4704.3 0.998706 1.00112 5.25979 0.98194
4704.69 1.00284 1.00298 5.24572 0.982175
4705.07 1.00726 1.00481 5.2317 0.982412
4705.46 1.0111 1.00652 5.21841 0.982651
4705.84 1.0137 1.00802 5.20522 0.982891
4706.23 1.01455 1.00929 5.19709 0.983133
4706.61 1.01423 1.01037 5.19247 0.983376
4707.0 1.01416 1.01132 5.18902 0.98362
4707.38 1.01516 1.01227 5.18902 0.983866
4707.77 1.01677 1.01341 5.18902 0.984112
4708.15 1.0185 1.01488 5.17909 0.984361
4708.54 1.02052 1.01679 5.16827 0.98461
4708.92 1.02319 1.01916 5.15488 0.98486
4709.31 1.02658 1.02191 5.13964 0.985111
4709.69 1.03053 1.02492 5.12462 0.985364
4710.08 1.03458 1.02809 5.11017 0.985617
4710.46 1.03761 1.03137 5.09577 0.985872
4710.85 1.03873 1.03472 5.0916 0.986127
4711.23 1.03849 1.03805 5.08848 0.986383
4711.62 1.03791 1.0412 5.08597 0.98664
4712.01 1.03772 1.04404 5.08391 0.986898
4712.39 1.03845 1.04651 5.08086 0.987156
4712.78 1.04035 1.04866 5.07463 0.987415
4713.16 1.04319 1.05066 5.06842 0.987675
4713.55 1.04659 1.05272 5.05811 0.987936
4713.93 1.04974 1.05499 5.0474 0.988197
4714.32 1.0518 1.05758 5.04077 0.988458
4714.71 1.05353 1.06053 5.0372 0.98872
4715.09 1.05706 1.06394 5.02736 0.988983
4715.48 1.06333 1.06788 4.99743 0.989246
4715.86 1.07074 1.07247 4.96777 0.989509
4716.25 1.07762 1.07777 4.93914 0.989772
4716.63 1.08326 1.08375 4.91083 0.990036
4717.02 1.08739 1.09026 4.88622 0.9903
4717.41 1.09074 1.09712 4.86436 0.990564
4717.79 1.09494 1.10411 4.8413 0.990829
4718.18 1.10069 1.11102 4.8142 0.991093
4718.56 1.10692 1.11766 4.78732 0.991358
4718.95 1.11254 1.12382 4.76732 0.991622
4719.34 1.11758 1.12934 4.74812 0.991887
4719.72 1.12246 1.13407 4.73126 0.992151
4720.11 1.1272 1.13792 4.71612 0.992416
4720.5 1.13154 1.1409 4.70237 0.99268
4720.88 1.13512 1.14307 4.69271 0.992944
4721.27 1.13737 1.14456 4.68308 0.993208
4721.65 1.13789 1.14545 4.68411 0.993471
4722.04 1.1372 1.1458 4.68612 0.993734
4722.43 1.13612 1.14566 4.68725 0.993997
4722.81 1.13524 1.14502 4.68777 0.994259
4723.2 1.13496 1.14389 4.68767 0.994521
4723.59 1.13534 1.14224 4.6858 0.994783
4723.97 1.13576 1.14001 4.68393 0.995044
4724.36 1.13552 1.13707 4.68596 0.995304
4724.75 1.13377 1.13328 4.68829 0.995564
4725.13 1.12967 1.12851 4.70147 0.995823
4725.52 1.12346 1.12274 4.72198 0.996081
4725.91 1.1162 1.11604 4.74697 0.996339
4726.29 1.10858 1.10856 4.7839 0.996595
4726.68 1.10063 1.10052 4.82127 0.996851
4727.07 1.0923 1.09217 4.86053 0.997106
4727.45 1.08356 1.08376 4.90035 0.997361
4727.84 1.0744 1.07552 4.93889 0.997614
4728.23 1.06498 1.06771 4.97678 0.997866
4728.61 1.05564 1.06059 5.01282 0.998117
4729.0 1.04701 1.05443 5.04362 0.998367
4729.39 1.04034 1.04951 5.0747 0.998616
4729.77 1.0366 1.04606 5.0809 0.998864
4730.16 1.03535 1.04419 5.08621 0.99911
4730.55 1.03578 1.0439 5.08292 0.999356
4730.93 1.03729 1.04504 5.07478 0.9996
4731.32 1.03941 1.04738 5.06413 0.999842
4731.71 1.04189 1.05063 5.04798 1.00008
4732.1 1.04473 1.05455 5.03191 1.00032
4732.48 1.04808 1.05892 5.01366 1.00056
4732.87 1.05239 1.06352 4.99549 1.0008
4733.26 1.05818 1.06813 4.97011 1.00103
4733.64 1.06517 1.07255 4.94128 1.00127
4734.03 1.07262 1.07663 4.91368 1.0015
4734.42 1.07981 1.08034 4.88819 1.00173
4734.81 1.08605 1.08368 4.86304 1.00196
4735.19 1.09081 1.08673 4.8463 1.00219
4735.58 1.09398 1.08951 4.82964 1.00241
4735.97 1.09564 1.09203 4.8223 1.00263
4736.36 1.09652 1.09428 4.81903 1.00286
4736.74 1.09773 1.0963 4.81561 1.00307
4737.13 1.0998 1.09824 4.81195 1.00329
4737.52 1.1024 1.10027 4.80821 1.00351
4737.91 1.10514 1.10253 4.80291 1.00372
4738.29 1.10774 1.10506 4.79762 1.00393
4738.68 1.10992 1.10775 4.79133 1.00414
4739.07 1.1117 1.11042 4.78467 1.00435
4739.46 1.11327 1.11289 4.77751 1.00455
4739.85 1.11513 1.11511 4.76964 1.00476
4740.23 1.11825 1.1171 4.76157 1.00496
4740.62 1.12298 1.11898 4.75114 1.00515
4741.01 1.12787 1.12088 4.74074 1.00535
4741.4 1.13127 1.12283 4.73195 1.00554
4741.79 1.13293 1.12482 4.72365 1.00573
4742.17 1.13332 1.12678 4.71778 1.00592
4742.56 1.13313 1.12867 4.71491 1.00611
4742.95 1.13336 1.13048 4.71278 1.00629
4743.34 1.13494 1.13228 4.71569 1.00647
4743.73 1.13859 1.13419 4.7186 1.00664
4744.11 1.14458 1.13625 4.70154 1.00682
4744.5 1.15013 1.13849 4.67987 1.00699
4744.89 1.15127 1.14086 4.67371 1.00716
4745.28 1.14785 1.14327 4.68368 1.00733
4745.67 1.14367 1.14567 4.69209 1.00749
4746.05 1.142 1.148 4.69284 1.00765
4746.44 1.14452 1.15022 4.69359 1.00781
4746.83 1.15187 1.15229 4.67016 1.00796
4747.22 1.15995 1.15415 4.64279 1.00811
4747.61 1.1631 1.15574 4.63088 1.00826
4748.0 1.16097 1.157 4.63221 1.00841
4748.39 1.15807 1.15784 4.63248 1.00855
4748.77 1.15748 1.1582 4.62899 1.00869
4749.16 1.15882 1.15801 4.6255 1.00883
4749.55 1.1612 1.15718 4.62771 1.00897
4749.94 1.16313 1.1557 4.63053 1.0091
4750.33 1.16295 1.15356 4.64082 1.00923
4750.72 1.15941 1.15082 4.65644 1.00936
4751.11 1.15163 1.14758 4.67688 1.00948
4751.49 1.14098 1.14396 4.71031 1.0096
4751.88 1.13305 1.14011 4.74409 1.00972
4752.27 1.13224 1.13616 4.7427 1.00984
4752.66 1.13569 1.1322 4.73969 1.00996
4753.05 1.13857 1.12831 4.74287 1.01007
4753.44 1.13799 1.12452 4.74954 1.01018
4753.83 1.13242 1.12087 4.76402 1.01028
4754.22 1.12318 1.11748 4.79475 1.01039
4754.61 1.11604 1.1145 4.82528 1.01049
4754.99 1.11534 1.11211 4.81942 1.01059
4755.38 1.11833 1.11045 4.81358 1.01069
4755.77 1.12083 1.10953 4.81905 1.01078
4756.16 1.1211 1.10927 4.82939 1.01088
4756.55 1.11886 1.10951 4.84082 1.01097
4756.94 1.11462 1.11009 4.85398 1.01105
4757.33 1.1099 1.11088 4.86675 1.01114
4757.72 1.10648 1.11179 4.87408 1.01122
4758.11 1.10674 1.1127 4.88144 1.0113
4758.5 1.11249 1.11349 4.86873 1.01138
4758.89 1.11997 1.11396 4.84987 1.01146
4759.28 1.12282 1.11394 4.847 1.01153
4759.67 1.11925 1.11326 4.86355 1.0116
4760.05 1.11271 1.1118 4.88086 1.01167
4760.44 1.10637 1.10953 4.90245 1.01174
4760.83 1.10195 1.10644 4.92418 1.01181
4761.22 1.1004 1.10258 4.94187 1.01187
4761.61 1.09932 1.09806 4.95879 1.01193
4762.0 1.09511 1.09303 4.98144 1.01199
4762.39 1.08775 1.08765 5.00953 1.01205
4762.78 1.08066 1.08209 5.03465 1.0121
4763.17 1.07604 1.07651 5.04772 1.01215
4763.56 1.0731 1.07105 5.06085 1.0122
4763.95 1.07076 1.06589 5.06971 1.01225
4764.34 1.06841 1.06126 5.07811 1.0123
4764.73 1.06566 1.05742 5.08509 1.01234
4765.12 1.06304 1.05458 5.09109 1.01239
4765.51 1.06179 1.05294 5.0934 1.01243
4765.9 1.06225 1.05258 5.08632 1.01247
4766.29 1.06312 1.05352 5.07925 1.0125
4766.68 1.06332 1.05567 5.07935 1.01254
4767.07 1.06347 1.05889 5.07964 1.01257
4767.46 1.06462 1.06297 5.07359 1.0126
4767.85 1.06734 1.06769 5.0644 1.01263
4768.24 1.07188 1.0728 5.04971 1.01266
4768.63 1.07793 1.07814 5.0253 1.01269
4769.02 1.08432 1.08358 5.00047 1.01271
4769.41 1.09016 1.08903 4.96486 1.01273
4769.8 1.09579 1.09438 4.92964 1.01275
4770.19 1.10172 1.09944 4.91018 1.01277
4770.58 1.10739 1.10403 4.89607 1.01279
4770.97 1.11178 1.10804 4.88523 1.0128
4771.36 1.11442 1.11153 4.87848 1.01282
4771.75 1.11557 1.11467 4.87192 1.01283
4772.14 1.11592 1.11772 4.86643 1.01284
4772.53 1.11723 1.12087 4.86094 1.01285
4772.92 1.12107 1.12421 4.8504 1.01286
4773.31 1.12674 1.12768 4.83886 1.01286
4773.71 1.13262 1.13115 4.82444 1.01287
4774.1 1.13794 1.13452 4.80747 1.01287
4774.49 1.14275 1.13771 4.79183 1.01287
4774.88 1.14699 1.14071 4.78063 1.01287
4775.27 1.15037 1.1435 4.76947 1.01287
4775.66 1.15246 1.14608 4.76822 1.01286
4776.05 1.1524 1.14843 4.76786 1.01286
4776.44 1.14934 1.15052 4.77717 1.01285
4776.83 1.14524 1.15226 4.79264 1.01285
4777.22 1.14409 1.15354 4.79902 1.01284
4777.61 1.14721 1.15419 4.78513 1.01283
4778.0 1.15157 1.15408 4.77141 1.01281
4778.39 1.15404 1.15314 4.77217 1.0128
4778.79 1.15297 1.15143 4.77292 1.01279
4779.18 1.14731 1.14911 4.7928 1.01277
4779.57 1.13892 1.14634 4.82083 1.01275
4779.96 1.13123 1.14324 4.83917 1.01274
4780.35 1.12614 1.13983 4.84297 1.01272
4780.74 1.12352 1.13605 4.84646 1.0127
4781.13 1.12278 1.13191 4.84732 1.01267
4781.52 1.12248 1.12749 4.84818 1.01265
4781.91 1.12111 1.12298 4.8559 1.01263
4782.31 1.11796 1.11862 4.86534 1.0126
4782.7 1.11276 1.11457 4.8806 1.01257
4783.09 1.10634 1.11091 4.90172 1.01255
4783.48 1.10065 1.10759 4.92022 1.01252
4783.87 1.09699 1.10459 4.92795 1.01249
4784.26 1.09508 1.10186 4.9357 1.01246
4784.65 1.09438 1.09947 4.94075 1.01242
4785.05 1.09414 1.09746 4.94551 1.01239
4785.44 1.09359 1.09586 4.95111 1.01236
4785.83 1.09246 1.09465 4.95726 1.01232
4786.22 1.09082 1.09378 4.96404 1.01229
4786.61 1.08933 1.09327 4.97225 1.01225
4787.0 1.08955 1.09313 4.98034 1.01221
4787.39 1.09235 1.09344 4.97116 1.01217
4787.79 1.09561 1.09422 4.96201 1.01213
4788.18 1.09672 1.09543 4.96023 1.01209
4788.57 1.09593 1.097 4.96145 1.01205
4788.96 1.09513 1.0989 4.95977 1.01201
4789.35 1.09587 1.1012 4.95395 1.01197
4789.75 1.09936 1.10404 4.94622 1.01192
4790.14 1.10597 1.1076 4.92388 1.01188
4790.53 1.11386 1.11197 4.9017 1.01183
4790.92 1.12103 1.11714 4.87858 1.01178
4791.31 1.12731 1.12294 4.85539 1.01174
4791.71 1.13326 1.12918 4.83579 1.01169
4792.1 1.13914 1.13568 4.81941 1.01164
4792.49 1.14494 1.14231 4.80317 1.01159
4792.88 1.15058 1.14895 4.7872 1.01154
4793.27 1.15594 1.15551 4.77131 1.01149
4793.67 1.16085 1.1618 4.7523 1.01144
4794.06 1.16509 1.16757 4.73318 1.01139
4794.45 1.16845 1.17254 4.72248 1.01134
4794.84 1.17107 1.17644 4.71653 1.01128
4795.24 1.17334 1.17904 4.70931 1.01123
4795.63 1.1754 1.18025 4.69968 1.01118
4796.02 1.17698 1.18006 4.69039 1.01112
4796.41 1.17774 1.1786 4.68709 1.01107
4796.8 1.17735 1.17611 4.6838 1.01101
4797.2 1.17549 1.17284 4.6917 1.01096
4797.59 1.17212 1.16907 4.70324 1.0109
4797.98 1.16739 1.16507 4.71904 1.01084
4798.37 1.16178 1.16109 4.73982 1.01079
4798.77 1.15618 1.15738 4.7603 1.01073
4799.16 1.15135 1.15417 4.77877 1.01067
4799.55 1.1477 1.15164 4.79735 1.01061
4799.95 1.14551 1.14994 4.8091 1.01055
4800.34 1.14479 1.14913 4.81995 1.0105
4800.73 1.1454 1.1492 4.82273 1.01044
4801.12 1.14701 1.15006 4.81983 1.01038
4801.52 1.14918 1.15152 4.81594 1.01032
4801.91 1.15153 1.1533 4.80969 1.01026
4802.3 1.15392 1.1551 4.80346 1.0102
4802.7 1.15615 1.15662 4.79771 1.01014
4803.09 1.15784 1.15768 4.79198 1.01008
4803.48 1.15857 1.15814 4.78977 1.01002
4803.87 1.15807 1.15796 4.78896 1.00996
4804.27 1.15619 1.15707 4.79286 1.0099
4804.66 1.15319 1.15547 4.80316 1.00984
4805.05 1.14983 1.15318 4.81373 1.00978
4805.45 1.14674 1.15032 4.82583 1.00972
4805.84 1.14406 1.14709 4.83798 1.00966
4806.23 1.14183 1.14374 4.84811 1.0096
4806.63 1.1397 1.14048 4.8579 1.00954
4807.02 1.13718 1.13751 4.86798 1.00948
4807.41 1.13395 1.13495 4.8783 1.00942
4807.81 1.12987 1.13291 4.89028 1.00936
4808.2 1.12573 1.1315 4.90672 1.00931
4808.59 1.12395 1.1308 4.92324 1.00925
4808.99 1.12631 1.13087 4.90978 1.00919
4809.38 1.13114 1.13166 4.89582 1.00913
4809.77 1.13598 1.13305 4.88482 1.00907
4810.17 1.13987 1.13486 4.87511 1.00901
4810.56 1.14276 1.13694 4.86686 1.00896
4810.95 1.14521 1.13916 4.86069 1.0089
4811.35 1.14849 1.14147 4.85385 1.00884
4811.74 1.15323 1.14383 4.8421 1.00879
4812.14 1.15811 1.14623 4.83039 1.00873
4812.53 1.16164 1.14863 4.824 1.00868
4812.92 1.16345 1.15104 4.81867 1.00862
4813.32 1.16363 1.15346 4.81669 1.00857
4813.71 1.16259 1.15593 4.81744 1.00851
4814.1 1.16101 1.1585 4.8188 1.00846
4814.5 1.15962 1.16116 4.8218 1.00841
4814.89 1.15923 1.16391 4.8248 1.00836
4815.29 1.16045 1.16669 4.81791 1.0083
4815.68 1.16297 1.1695 4.81082 1.00825
4816.07 1.16624 1.17233 4.80045 1.0082
4816.47 1.16976 1.1752 4.78867 1.00815
4816.86 1.1731 1.17808 4.77773 1.00811
4817.26 1.17599 1.18085 4.76796 1.00806
4817.65 1.17844 1.18334 4.75875 1.00801
4818.04 1.18054 1.18533 4.75312 1.00796
4818.44 1.18262 1.18665 4.74751 1.00792
4818.83 1.18493 1.1872 4.74787 1.00787
4819.23 1.18689 1.18691 4.74933 1.00783
4819.62 1.18764 1.18573 4.75626 1.00778
4820.02 1.1868 1.18357 4.76748 1.00774
4820.41 1.1844 1.18041 4.78001 1.0077
4820.8 1.18059 1.17629 4.79587 1.00766
4821.2 1.17571 1.17141 4.81182 1.00762
4821.59 1.17012 1.16604 4.8306 1.00758
4821.99 1.16427 1.1605 4.84948 1.00754
4822.38 1.15856 1.15503 4.86972 1.00751
4822.78 1.15305 1.14978 4.89058 1.00747
4823.17 1.14758 1.14485 4.90823 1.00744
4823.57 1.1423 1.14036 4.92162 1.0074
4823.96 1.13777 1.13651 4.93401 1.00737
4824.36 1.13445 1.13347 4.94065 1.00734
4824.75 1.13259 1.13139 4.9473 1.00731
4825.15 1.13234 1.13027 4.94806 1.00728
4825.54 1.13331 1.12995 4.94797 1.00725
4825.94 1.13494 1.13018 4.94402 1.00723
4826.33 1.13655 1.13067 4.93745 1.0072
4826.72 1.13741 1.13121 4.93336 1.00718
4827.12 1.13714 1.13166 4.93458 1.00716
4827.51 1.13598 1.13195 4.93609 1.00714
4827.91 1.13426 1.13206 4.945 1.00712
4828.3 1.1324 1.13194 4.95392 1.0071
4828.7 1.13081 1.13152 4.969 1.00708
4829.09 1.12956 1.13076 4.98611 1.00706
4829.49 1.12855 1.1297 4.99687 1.00705
4829.89 1.1276 1.12842 5.0007 1.00704
4830.28 1.1265 1.12704 5.00389 1.00703
4830.68 1.12514 1.12569 5.00458 1.00702
4831.07 1.12367 1.12448 5.00526 1.00701
4831.47 1.12229 1.1235 5.00453 1.007
4831.86 1.12128 1.12285 5.00368 1.00699
4832.26 1.12094 1.12267 5.00309 1.00699
4832.65 1.12139 1.12307 5.00262 1.00699
4833.05 1.12269 1.12411 5.0008 1.00699
4833.44 1.12469 1.12571 4.99668 1.00699
4833.84 1.12695 1.12771 4.9928 1.00699
4834.23 1.12909 1.12986 4.99112 1.007
4834.63 1.13079 1.13194 4.98945 1.007
4835.03 1.1318 1.13378 4.98944 1.00701
4835.42 1.13202 1.13524 4.98979 1.00702
4835.82 1.1315 1.13624 4.99054 1.00703
4836.21 1.13055 1.13671 4.99161 1.00705
4836.61 1.12979 1.13661 4.99261 1.00706
4837.0 1.12949 1.13591 4.99344 1.00708
4837.4 1.12934 1.1346 4.99426 1.0071
4837.8 1.12902 1.13268 4.99591 1.00712
4838.19 1.12833 1.13023 4.99755 1.00714
4838.59 1.12714 1.12738 5.00153 1.00717
4838.98 1.12549 1.12432 5.00641 1.00719
4839.38 1.1235 1.12125 5.01628 1.00722
4839.77 1.12114 1.11833 5.0323 1.00725
4840.17 1.1182 1.1157 5.04814 1.00729
4840.57 1.11477 1.11347 5.06284 1.00732
4840.96 1.11162 1.11175 5.0776 1.00736
4841.36 1.10954 1.11067 5.0856 1.0074
4841.75 1.10887 1.11032 5.0929 1.00744
4842.15 1.10976 1.11076 5.09399 1.00748
4842.55 1.11185 1.11193 5.09148 1.00753
4842.94 1.11447 1.1137 5.08415 1.00758
4843.34 1.11718 1.11592 5.06837 1.00763
4843.74 1.11992 1.11847 5.05299 1.00768
4844.13 1.1227 1.12129 5.04112 1.00774
4844.53 1.1256 1.12431 5.02929 1.00779
4844.92 1.12868 1.12738 5.01818 1.00785
4845.32 1.13189 1.13029 5.00725 1.00791
4845.72 1.13509 1.13281 4.99648 1.00798
4846.11 1.13801 1.13474 4.98582 1.00804
4846.51 1.1402 1.136 4.97808 1.00811
4846.91 1.14127 1.13666 4.97778 1.00818
4847.3 1.14088 1.13686 4.97761 1.00826
4847.7 1.13893 1.13672 4.98949 1.00833
4848.1 1.13625 1.13631 5.00141 1.00841
4848.49 1.13385 1.13565 5.01045 1.00849
4848.89 1.13243 1.13474 5.01849 1.00858
4849.29 1.13255 1.13358 5.01828 1.00866
4849.68 1.13374 1.13224 5.00886 1.00875
4850.08 1.13455 1.13078 5.00105 1.00884
4850.48 1.13401 1.12921 4.99949 1.00893
4850.87 1.13237 1.12748 4.99792 1.00902
4851.27 1.13 1.12547 5.00768 1.00912
4851.67 1.12703 1.123 5.01824 1.00922
4852.07 1.1235 1.11994 5.03358 1.00932
4852.46 1.11941 1.11618 5.05136 1.00942
4852.86 1.11474 1.11173 5.06926 1.00952
4853.26 1.10956 1.10667 5.08731 1.00963
4853.65 1.10407 1.10113 5.10596 1.00973
4854.05 1.09834 1.09524 5.12789 1.00984
4854.45 1.092 1.08909 5.14996 1.00996
4854.85 1.08469 1.08269 5.18865 1.01007
4855.24 1.07638 1.07598 5.23029 1.01018
4855.64 1.06721 1.06885 5.28198 1.0103
4856.04 1.05747 1.06123 5.34082 1.01042
4856.43 1.04758 1.05306 5.40166 1.01054
4856.83 1.0376 1.04432 5.46555 1.01066
4857.23 1.02706 1.03501 5.53034 1.01078
4857.63 1.01569 1.02507 5.59313 1.01091
4858.02 1.00397 1.01446 5.657 1.01104
4858.42 0.992514 1.00317 5.7163 1.01116
4858.82 0.981581 0.991349 5.77518 1.01129
4859.22 0.971284 0.979321 5.83052 1.01143
4859.61 0.96147 0.967568 5.88289 1.01156
4860.01 0.951755 0.956643 5.93357 1.01169
4860.41 0.942103 0.947065 5.9787 1.01183
4860.81 0.933112 0.939255 6.02395 1.01197
4861.2 0.925521 0.933541 6.04797 1.0121
4861.6 0.920369 0.930188 6.07214 1.01224
4862.0 0.918698 0.929391 6.06809 1.01239
4862.4 0.920982 0.931245 6.05488 1.01253
4862.8 0.927374 0.935687 6.01926 1.01267
4863.19 0.937317 0.942471 5.96113 1.01282
4863.59 0.949526 0.951235 5.89873 1.01296
4863.99 0.962765 0.961578 5.82061 1.01311
4864.39 0.975966 0.97311 5.74402 1.01326
4864.79 0.988314 0.985445 5.67507 1.01341
4865.18 1.00002 0.998135 5.60754 1.01356
4865.58 1.01155 1.01064 5.5478 1.01371
4865.98 1.0232 1.02236 5.49169 1.01386
4866.38 1.03513 1.03276 5.44231 1.01402
4866.78 1.04646 1.04143 5.4008 1.01417
4867.17 1.05519 1.04819 5.366 1.01433
4867.57 1.05996 1.05298 5.35854 1.01449
4867.97 1.06112 1.05586 5.3511 1.01464
4868.37 1.05939 1.05692 5.35744 1.0148
4868.77 1.05589 1.05627 5.36488 1.01496
4869.17 1.0519 1.05408 5.37568 1.01512
4869.56 1.04851 1.05065 5.38818 1.01528
4869.96 1.04666 1.04637 5.3954 1.01544
4870.36 1.04611 1.04175 5.39493 1.01561
4870.76 1.0451 1.03732 5.39547 1.01577
4871.16 1.04252 1.03362 5.40176 1.01593
4871.56 1.03926 1.03106 5.40807 1.0161
4871.96 1.03643 1.0299 5.41081 1.01626
4872.35 1.03475 1.0302 5.41312 1.01643
4872.75 1.03478 1.03185 5.41124 1.01659
4873.15 1.03662 1.03469 5.40694 1.01676
4873.55 1.0401 1.03858 5.3986 1.01693
4873.95 1.04504 1.04346 5.38361 1.01709
4874.35 1.05136 1.04929 5.36622 1.01726
4874.75 1.05906 1.05603 5.33094 1.01743
4875.15 1.06834 1.06351 5.29601 1.0176
4875.54 1.07935 1.0715 5.25083 1.01777
4875.94 1.09145 1.07972 5.20457 1.01794
4876.34 1.10367 1.08791 5.15532 1.01811
4876.74 1.11416 1.09584 5.10447 1.01828
4877.14 1.12049 1.1033 5.0712 1.01845
4877.54 1.12251 1.1101 5.06932 1.01862
4877.94 1.12355 1.11611 5.06695 1.01879
4878.34 1.12623 1.12125 5.05993 1.01896
4878.74 1.13025 1.12554 5.05293 1.01913
4879.14 1.13471 1.12901 5.04826 1.0193
4879.53 1.13834 1.13168 5.04405 1.01947
4879.93 1.13986 1.13354 5.04576 1.01964
4880.33 1.13925 1.13452 5.05165 1.01981
4880.73 1.13752 1.13457 5.05879 1.01999
4881.13 1.13537 1.13375 5.06842 1.02016
4881.53 1.13304 1.13217 5.07837 1.02033
4881.93 1.13054 1.12997 5.09177 1.0205
4882.33 1.12743 1.12727 5.10522 1.02067
4882.73 1.12319 1.12409 5.12427 1.02084
4883.13 1.1174 1.1204 5.14459 1.02101
4883.53 1.10979 1.11619 5.17318 1.02118
4883.93 1.10185 1.11153 5.20812 1.02135
4884.33 1.09647 1.10657 5.23499 1.02152
4884.73 1.09458 1.10149 5.24408 1.02169
4885.13 1.0938 1.09648 5.25342 1.02186
4885.53 1.09195 1.0916 5.26582 1.02203
4885.93 1.08832 1.08689 5.27827 1.0222
4886.33 1.08271 1.08233 5.29576 1.02237
4886.73 1.07652 1.07792 5.31447 1.02253
4887.13 1.07172 1.07368 5.32923 1.0227
4887.53 1.06851 1.06963 5.34092 1.02287
4887.93 1.06563 1.06578 5.35318 1.02303
4888.33 1.06245 1.0622 5.36659 1.0232
4888.73 1.05944 1.05906 5.37946 1.02336
4889.13 1.05715 1.05665 5.3836 1.02353
4889.53 1.05607 1.05531 5.38774 1.02369
4889.93 1.05661 1.05535 5.3795 1.02385
4890.33 1.0588 1.05693 5.36847 1.02402
4890.73 1.06247 1.06007 5.34949 1.02418
4891.13 1.06745 1.06481 5.3245 1.02434
4891.53 1.07354 1.07124 5.29558 1.0245
4891.93 1.08078 1.07952 5.25809 1.02466
4892.33 1.08954 1.08979 5.2202 1.02482
4892.73 1.10014 1.10194 5.17199 1.02497
4893.13 1.11278 1.11559 5.12443 1.02513
4893.53 1.1275 1.13014 5.06774 1.02529
4893.93 1.14367 1.14492 5.00987 1.02544
4894.33 1.16034 1.15935 4.95698 1.0256
4894.73 1.17612 1.17302 4.90787 1.02575
4895.13 1.18923 1.18563 4.86506 1.0259
4895.53 1.19871 1.19694 4.83432 1.02605
4895.93 1.2049 1.20669 4.80516 1.0262
4896.33 1.2085 1.21464 4.79145 1.02635
4896.73 1.21104 1.22057 4.77781 1.0265
4897.13 1.21392 1.22442 4.77704 1.02664
4897.53 1.21635 1.22626 4.77889 1.02679
4897.93 1.21678 1.22628 4.78331 1.02693
4898.33 1.21507 1.22475 4.78957 1.02707
4898.74 1.21226 1.22196 4.79565 1.02722
4899.14 1.20914 1.21817 4.80135 1.02736
4899.54 1.20616 1.21366 4.80706 1.0275
4899.94 1.20347 1.2087 4.81278 1.02763
4900.34 1.20054 1.2036 4.81851 1.02777
4900.74 1.19672 1.19867 4.8431 1.02791
4901.14 1.19153 1.19417 4.8713 1.02804
4901.54 1.18469 1.19029 4.8993 1.02817
4901.94 1.17702 1.18713 4.92727 1.02831
4902.34 1.17022 1.18473 4.95132 1.02844
4902.75 1.16571 1.18312 4.9681 1.02857
4903.15 1.16443 1.18233 4.98236 1.0287
4903.55 1.16638 1.18237 4.9769 1.02883
4903.95 1.16891 1.18317 4.97145 1.02895
4904.35 1.16962 1.18452 4.96026 1.02908
4904.75 1.17034 1.18614 4.94828 1.0292
4905.15 1.1742 1.1877 4.92874 1.02933
4905.55 1.18122 1.18888 4.90487 1.02945
4905.96 1.1892 1.18948 4.88348 1.02957
4906.36 1.19529 1.18935 4.86584 1.0297
4906.76 1.19585 1.18839 4.85536 1.02982
4907.16 1.18952 1.18656 4.88655 1.02994
4907.56 1.18106 1.18385 4.91805 1.03005
4907.96 1.17528 1.18032 4.92762 1.03017
4908.36 1.17202 1.17612 4.93486 1.03029
4908.77 1.16953 1.17148 4.94571 1.03041
4909.17 1.16645 1.16668 4.95843 1.03052
4909.57 1.16173 1.16203 4.97635 1.03064
4909.97 1.15504 1.15786 5.00147 1.03075
4910.37 1.14692 1.15448 5.02888 1.03086
4910.77 1.13872 1.15213 5.06608 1.03098
4911.18 1.13363 1.15095 5.10369 1.03109
4911.58 1.13429 1.15099 5.09201 1.0312
4911.98 1.1396 1.15216 5.07731 1.03131
4912.38 1.14734 1.15429 5.05538 1.03142
4912.78 1.15524 1.15714 5.03052 1.03153
4913.19 1.16104 1.16043 5.01324 1.03164
4913.59 1.16415 1.16385 5.00461 1.03174
4913.99 1.16576 1.167 4.99698 1.03185
4914.39 1.16683 1.16948 4.99273 1.03196
4914.79 1.16769 1.17079 4.98848 1.03206
4915.2 1.16839 1.17043 4.98783 1.03217
4915.6 1.16822 1.16796 4.98723 1.03227
4916.0 1.16625 1.16311 4.99576 1.03238
4916.4 1.16147 1.15584 5.00742 1.03248
4916.81 1.15294 1.14634 5.03609 1.03258
4917.21 1.14087 1.13499 5.08156 1.03269
4917.61 1.12668 1.1223 5.13168 1.03279
4918.01 1.11182 1.10883 5.19346 1.03289
4918.41 1.09781 1.09516 5.25595 1.03299
4918.82 1.08583 1.0819 5.30803 1.03309
4919.22 1.07587 1.06964 5.36089 1.03319
4919.62 1.06751 1.05899 5.40107 1.03329
4920.02 1.05927 1.05043 5.4383 1.03339
4920.43 1.04939 1.04435 5.47287 1.03349
4920.83 1.03959 1.04092 5.5054 1.03359
4921.23 1.03452 1.04019 5.52033 1.03369
4921.63 1.03656 1.04201 5.49887 1.03378
4922.04 1.04433 1.04616 5.47499 1.03388
4922.44 1.05595 1.05236 5.42696 1.03398
4922.84 1.06904 1.0603 5.37957 1.03408
4923.25 1.08136 1.06973 5.32216 1.03417
4923.65 1.09231 1.08033 5.26394 1.03427
4924.05 1.10195 1.09177 5.21981 1.03436
4924.45 1.11075 1.10368 5.18406 1.03446
4924.86 1.11951 1.11569 5.14604 1.03456
4925.26 1.12906 1.12753 5.1044 1.03465
4925.66 1.14021 1.13905 5.06164 1.03475
4926.07 1.15358 1.15022 5.01086 1.03484
4926.47 1.16924 1.16102 4.96084 1.03494
4926.87 1.18662 1.17139 4.89431 1.03503
4927.28 1.20262 1.18116 4.82772 1.03512
4927.68 1.21366 1.19015 4.80038 1.03522
4928.08 1.21997 1.19817 4.79018 1.03531
4928.49 1.22408 1.20514 4.78341 1.03541
4928.89 1.22776 1.21099 4.78067 1.0355
4929.29 1.23197 1.21564 4.77726 1.0356
4929.7 1.23677 1.21893 4.77161 1.03569
4930.1 1.24041 1.22068 4.76598 1.03578
4930.5 1.2412 1.22078 4.76697 1.03588
4930.91 1.23832 1.21929 4.76798 1.03597
4931.31 1.23137 1.21646 4.78417 1.03607
4931.71 1.22158 1.21259 4.80513 1.03616
4932.12 1.21093 1.20796 4.82923 1.03625
4932.52 1.20115 1.20268 4.85615 1.03635
4932.92 1.19376 1.19676 4.88143 1.03644
4933.33 1.18892 1.19019 4.90263 1.03654
4933.73 1.18458 1.18308 4.92413 1.03663
4934.13 1.17905 1.17569 4.94765 1.03672
4934.54 1.17262 1.16838 4.97133 1.03682
4934.94 1.16594 1.16145 4.99536 1.03691
4935.35 1.15939 1.15502 5.0196 1.03701
4935.75 1.15323 1.14904 5.0432 1.0371
4936.15 1.14761 1.14336 5.06646 1.0372
4936.56 1.14255 1.13794 5.08747 1.03729
4936.96 1.13798 1.1329 5.10479 1.03739
4937.36 1.13369 1.12853 5.1213 1.03749
4937.77 1.12962 1.12522 5.13315 1.03758
4938.17 1.12622 1.12333 5.14504 1.03768
4938.58 1.12396 1.12305 5.15128 1.03777
4938.98 1.12333 1.12446 5.15713 1.03787
4939.38 1.12478 1.12749 5.15759 1.03797
4939.79 1.12864 1.13205 5.15579 1.03807
4940.19 1.13511 1.13799 5.14044 1.03816
4940.6 1.14365 1.14515 5.11045 1.03826
4941.0 1.15295 1.15333 5.07963 1.03836
4941.41 1.1621 1.16224 5.04585 1.03846
4941.81 1.17116 1.17158 5.0123 1.03856
4942.21 1.18028 1.18102 4.9753 1.03866
4942.62 1.18975 1.19029 4.9387 1.03876
4943.02 1.19969 1.19912 4.89904 1.03886
4943.43 1.20902 1.20731 4.85899 1.03896
4943.83 1.21617 1.21466 4.83392 1.03906
4944.24 1.22088 1.221 4.81976 1.03917
4944.64 1.22394 1.22622 4.80702 1.03927
4945.05 1.22614 1.23035 4.79685 1.03937
4945.45 1.22817 1.23354 4.7866 1.03947
4945.85 1.23064 1.23605 4.77563 1.03958
4946.26 1.23385 1.23822 4.76469 1.03968
4946.66 1.23796 1.24032 4.74327 1.03979
4947.07 1.24252 1.24252 4.72084 1.03989
4947.47 1.24691 1.2448 4.7052 1.04
4947.88 1.25078 1.24703 4.69281 1.04011
4948.28 1.25399 1.24904 4.68385 1.04022
4948.69 1.25649 1.25072 4.67901 1.04032
4949.09 1.25834 1.25202 4.67587 1.04043
4949.5 1.25971 1.25301 4.67838 1.04054
4949.9 1.26101 1.25374 4.68088 1.04065
4950.31 1.26235 1.2542 4.68249 1.04076
4950.71 1.26265 1.25427 4.6841 1.04088
4951.12 1.26072 1.25366 4.69192 1.04099
4951.52 1.25665 1.25199 4.70145 1.0411
4951.93 1.25115 1.2489 4.71474 1.04122
4952.33 1.24524 1.24415 4.73099 1.04133
4952.74 1.24018 1.23774 4.74878 1.04144
4953.14 1.23556 1.22982 4.76946 1.04156
4953.55 1.22848 1.22064 4.79341 1.04168
4953.95 1.217 1.21038 4.84035 1.04179
4954.36 1.20249 1.19915 4.888 1.04191
4954.77 1.18682 1.18711 4.93549 1.04203
4955.17 1.17162 1.17452 4.98359 1.04215
4955.58 1.15835 1.16187 5.02567 1.04227
4955.98 1.14752 1.14972 5.06511 1.04239
4956.39 1.13911 1.13865 5.09906 1.04251
4956.79 1.13252 1.12916 5.12637 1.04263
4957.2 1.12655 1.12166 5.15112 1.04275
4957.6 1.12069 1.11649 5.16733 1.04288
4958.01 1.1158 1.11395 5.18329 1.043
4958.42 1.11292 1.11422 5.1857 1.04313
4958.82 1.11323 1.1172 5.18812 1.04325
4959.23 1.11767 1.12253 5.17349 1.04338
4959.63 1.12532 1.12962 5.15484 1.0435
4960.04 1.13448 1.13781 5.12084 1.04363
4960.44 1.14449 1.14659 5.07648 1.04376
4960.85 1.15551 1.15553 5.03453 1.04388
4961.26 1.16719 1.1643 4.99619 1.04401
4961.66 1.17851 1.17249 4.96016 1.04414
4962.07 1.18814 1.17965 4.93486 1.04427
4962.47 1.19412 1.18531 4.90975 1.0444
4962.88 1.19512 1.18913 4.9158 1.04453
4963.29 1.1933 1.19097 4.924 1.04466
4963.69 1.19157 1.19096 4.9307 1.04479
4964.1 1.18992 1.18934 4.93681 1.04493
4964.5 1.18677 1.18645 4.94697 1.04506
4964.91 1.18093 1.18262 4.96115 1.04519
4965.32 1.17175 1.17816 4.98049 1.04533
4965.72 1.16061 1.17343 5.01268 1.04546
4966.13 1.15253 1.16878 5.04275 1.0456
4966.54 1.15078 1.16455 5.04167 1.04574
4966.94 1.15192 1.16099 5.04058 1.04587
4967.35 1.1517 1.15829 5.05126 1.04601
4967.75 1.14941 1.15661 5.06395 1.04615
4968.16 1.14587 1.15606 5.07809 1.04629
4968.57 1.14363 1.15675 5.09308 1.04642
4968.97 1.1464 1.15872 5.08566 1.04656
4969.38 1.1542 1.16186 5.04862 1.0467
4969.79 1.16263 1.16593 5.01708 1.04684
4970.19 1.16873 1.17059 5.00434 1.04699
4970.6 1.17323 1.17558 4.99165 1.04713
4971.01 1.17726 1.18076 4.97872 1.04727
4971.41 1.1818 1.1861 4.96583 1.04741
4971.82 1.18762 1.19157 4.94425 1.04755
4972.23 1.19406 1.19703 4.92049 1.0477
4972.63 1.1999 1.2022 4.90222 1.04784
4973.04 1.20459 1.20676 4.88794 1.04799
4973.45 1.20816 1.21044 4.87622 1.04813
4973.86 1.21061 1.21309 4.86887 1.04828
4974.26 1.21191 1.21467 4.86261 1.04843
4974.67 1.21203 1.2152 4.86221 1.04857
4975.08 1.21096 1.21465 4.86182 1.04872
4975.48 1.2086 1.21297 4.87006 1.04887
4975.89 1.20439 1.21011 4.87886 1.04902
4976.3 1.19779 1.20609 4.90792 1.04916
4976.7 1.18952 1.20096 4.94479 1.04931
4977.11 1.18099 1.19479 4.98336 1.04946
4977.52 1.17305 1.18766 5.02358 1.04961
4977.93 1.16604 1.17965 5.06263 1.04976
4978.33 1.15957 1.17087 5.09838 1.04992
4978.74 1.15209 1.16146 5.13361 1.05007
4979.15 1.14253 1.15159 5.16104 1.05022
4979.56 1.13151 1.14141 5.1887 1.05037
4979.96 1.11987 1.13106 5.22668 1.05053
4980.37 1.10812 1.1207 5.26632 1.05068
4980.78 1.09662 1.11052 5.309 1.05083
4981.19 1.0857 1.10078 5.3534 1.05099
4981.59 1.07569 1.09178 5.39453 1.05114
4982.0 1.06708 1.08384 5.43186 1.0513
4982.41 1.06053 1.07726 5.4612 1.05145
4982.82 1.05658 1.07233 5.46769 1.05161
4983.22 1.05558 1.06926 5.47304 1.05177
4983.63 1.05765 1.06823 5.46021 1.05193
4984.04 1.06246 1.0693 5.44742 1.05208
4984.45 1.06949 1.07237 5.42031 1.05224
4984.86 1.07778 1.0772 5.39092 1.0524
4985.26 1.08628 1.08346 5.35569 1.05256
4985.67 1.09443 1.09079 5.31748 1.05272
4986.08 1.10208 1.09892 5.28086 1.05288
4986.49 1.10935 1.10763 5.24612 1.05304
4986.89 1.11668 1.11669 5.21134 1.0532
4987.3 1.12449 1.12574 5.17568 1.05336
4987.71 1.13303 1.13432 5.14019 1.05352
4988.12 1.14223 1.14197 5.09808 1.05368
4988.53 1.1509 1.14839 5.05647 1.05385
4988.94 1.15774 1.15355 5.03785 1.05401
4989.34 1.16247 1.15765 5.02421 1.05417
4989.75 1.16521 1.16095 5.01765 1.05434
4990.16 1.16632 1.16362 5.01547 1.0545
4990.57 1.16628 1.16569 5.01632 1.05466
4990.98 1.16566 1.16712 5.02148 1.05483
4991.39 1.16508 1.16794 5.02489 1.05499
4991.79 1.16495 1.16838 5.02159 1.05516
4992.2 1.16512 1.16877 5.01831 1.05533
4992.61 1.1654 1.16935 5.01912 1.05549
4993.02 1.16559 1.1702 5.01993 1.05566
4993.43 1.16555 1.17119 5.02274 1.05583
4993.84 1.16525 1.17213 5.02606 1.05599
4994.24 1.16472 1.17292 5.03038 1.05616
4994.65 1.16429 1.17356 5.03539 1.05633
4995.06 1.16453 1.17411 5.03902 1.0565
4995.47 1.16564 1.17452 5.04055 1.05667
4995.88 1.16743 1.17455 5.04118 1.05684
4996.29 1.1695 1.17387 5.03807 1.05701
4996.7 1.17109 1.17219 5.03497 1.05718
4997.11 1.17136 1.16941 5.03048 1.05735
4997.51 1.16931 1.16563 5.02599 1.05752
4997.92 1.16415 1.16107 5.03945 1.05769
4998.33 1.15709 1.15598 5.05774 1.05786
4998.74 1.1502 1.1505 5.07956 1.05803
4999.15 1.14417 1.14473 5.10391 1.0582
4999.56 1.1386 1.13874 5.12979 1.05838
4999.97 1.133 1.13264 5.15798 1.05855
5000.38 1.12673 1.12657 5.18686 1.05872
5000.79 1.11955 1.12068 5.21788 1.0589
5001.2 1.11209 1.11506 5.24919 1.05907
5001.61 1.10513 1.10976 5.27073 1.05924
5002.01 1.09956 1.10478 5.29231 1.05942
5002.42 1.09621 1.10013 5.30195 1.05959
5002.83 1.09513 1.09578 5.30843 1.05977
5003.24 1.09593 1.09177 5.30753 1.05994
5003.65 1.09769 1.0881 5.30154 1.06012
5004.06 1.09903 1.08482 5.29868 1.06029
5004.47 1.09945 1.08199 5.3006 1.06047
5004.88 1.09965 1.07974 5.30178 1.06065
5005.29 1.10014 1.07817 5.29986 1.06082
5005.7 1.10089 1.07741 5.29794 1.061
5006.11 1.10178 1.07755 5.29495 1.06118
5006.52 1.10277 1.07862 5.29196 1.06136
5006.93 1.10387 1.08064 5.28977 1.06153
5007.34 1.10563 1.08353 5.28779 1.06171
5007.75 1.10874 1.08707 5.27324 1.06189
5008.16 1.11289 1.09093 5.25054 1.06207
5008.57 1.11702 1.09462 5.23242 1.06225
5008.98 1.12021 1.09768 5.22081 1.06243
5009.39 1.12166 1.09972 5.21255 1.06261
5009.8 1.12076 1.1006 5.21665 1.06279
5010.21 1.11724 1.10032 5.22119 1.06297
5010.62 1.11123 1.099 5.25388 1.06315
5011.03 1.10423 1.09667 5.28688 1.06333
5011.44 1.09786 1.09336 5.31256 1.06351
5011.85 1.09227 1.08908 5.33674 1.06369
5012.26 1.08697 1.08399 5.35911 1.06388
5012.67 1.08148 1.07842 5.38042 1.06406
5013.08 1.07535 1.07282 5.4025 1.06424
5013.49 1.06924 1.06765 5.4256 1.06442
5013.9 1.06505 1.06326 5.44195 1.06461
5014.31 1.06365 1.05985 5.43609 1.06479
5014.72 1.06359 1.05753 5.43048 1.06497
5015.13 1.06344 1.05637 5.43043 1.06516
5015.54 1.06287 1.05641 5.43037 1.06534
5015.95 1.06196 1.05764 5.43589 1.06552
5016.36 1.0618 1.05995 5.4424 1.06571
5016.77 1.06376 1.06317 5.43646 1.06589
5017.18 1.06763 1.06703 5.42402 1.06608
5017.59 1.0722 1.07131 5.41109 1.06626
5018.0 1.07671 1.07579 5.39759 1.06645
5018.41 1.08095 1.08028 5.38441 1.06664
5018.82 1.08482 1.0846 5.37197 1.06682
5019.23 1.08827 1.08858 5.35985 1.06701
5019.64 1.09113 1.0921 5.35097 1.0672
5020.05 1.09271 1.09519 5.34211 1.06738
5020.46 1.09253 1.09797 5.3401 1.06757
5020.88 1.09176 1.10065 5.33896 1.06776
5021.29 1.09208 1.10334 5.33416 1.06795
5021.7 1.09421 1.10605 5.32779 1.06813
5022.11 1.0983 1.1087 5.31801 1.06832
5022.52 1.1036 1.11122 5.30494 1.06851
5022.93 1.10851 1.11366 5.29118 1.0687
5023.34 1.1122 1.11611 5.27586 1.06889
5023.75 1.11509 1.11864 5.26141 1.06908
5024.16 1.11763 1.12124 5.25246 1.06927
5024.57 1.11998 1.12379 5.24353 1.06946
5024.99 1.12226 1.12621 5.23563 1.06965
5025.4 1.12455 1.12851 5.22781 1.06984
5025.81 1.12692 1.13084 5.21615 1.07003
5026.22 1.12935 1.13332 5.20323 1.07022
5026.63 1.1318 1.13601 5.18613 1.07041
5027.04 1.13455 1.13884 5.1658 1.0706
5027.45 1.13811 1.14179 5.14423 1.07079
5027.86 1.14277 1.14493 5.1205 1.07098
5028.28 1.14842 1.14849 5.09645 1.07118
5028.69 1.15468 1.15275 5.07044 1.07137
5029.1 1.16058 1.15786 5.04462 1.07156
5029.51 1.16546 1.16372 5.02388 1.07175
5029.92 1.17027 1.17001 5.0033 1.07195
5030.33 1.17614 1.17635 4.98096 1.07214
5030.74 1.18298 1.18244 4.95834 1.07233
5031.16 1.1901 1.18805 4.93718 1.07253
5031.57 1.19654 1.19302 4.91696 1.07272
5031.98 1.20112 1.19715 4.90152 1.07292
5032.39 1.20338 1.20016 4.89219 1.07311
5032.8 1.20367 1.20174 4.88819 1.0733
5033.21 1.20224 1.20172 4.90019 1.0735
5033.63 1.19907 1.20009 4.91305 1.07369
5034.04 1.19415 1.19699 4.93797 1.07389
5034.45 1.18771 1.19257 4.96309 1.07409
5034.86 1.18002 1.18692 4.99858 1.07428
5035.27 1.17163 1.17998 5.03588 1.07448
5035.69 1.1631 1.17175 5.06502 1.07467
5036.1 1.15459 1.16232 5.0906 1.07487
5036.51 1.14598 1.15203 5.12035 1.07507
5036.92 1.13721 1.14127 5.15422 1.07526
5037.33 1.12829 1.13045 5.18974 1.07546
5037.75 1.11926 1.11976 5.22838 1.07566
5038.16 1.11021 1.10931 5.26675 1.07586
5038.57 1.10104 1.09919 5.30132 1.07605
5038.98 1.09115 1.08968 5.33624 1.07625
5039.4 1.08027 1.08123 5.3743 1.07645
5039.81 1.06995 1.07441 5.4129 1.07665
5040.22 1.06218 1.06968 5.43606 1.07685
5040.63 1.05831 1.0673 5.45477 1.07704
5041.04 1.05928 1.06738 5.45261 1.07724
5041.46 1.06439 1.06997 5.43617 1.07744
5041.87 1.07164 1.07508 5.40569 1.07764
5042.28 1.08037 1.0827 5.35556 1.07784
5042.7 1.09165 1.09263 5.3045 1.07804
5043.11 1.10599 1.10443 5.24879 1.07824
5043.52 1.12259 1.11746 5.1938 1.07844
5043.93 1.14027 1.131 5.13666 1.07864
5044.35 1.15709 1.14439 5.08046 1.07884
5044.76 1.17111 1.15708 5.03186 1.07904
5045.17 1.18145 1.16862 4.98495 1.07924
5045.58 1.18773 1.17855 4.96098 1.07945
5046.0 1.19097 1.18644 4.94729 1.07965
5046.41 1.19297 1.19194 4.93812 1.07985
5046.82 1.19511 1.19487 4.93332 1.08005
5047.24 1.19824 1.19528 4.92657 1.08025
5047.65 1.20136 1.19344 4.91582 1.08045
5048.06 1.20056 1.18977 4.91081 1.08066
5048.47 1.19364 1.18481 4.93854 1.08086
5048.89 1.1834 1.1791 4.96651 1.08106
5049.3 1.17312 1.1732 4.99641 1.08126
5049.71 1.16461 1.16762 5.02664 1.08147
5050.13 1.15907 1.16278 5.05293 1.08167
5050.54 1.15615 1.159 5.07832 1.08187
5050.95 1.1548 1.15653 5.08307 1.08208
5051.37 1.15445 1.15551 5.07473 1.08228
5051.78 1.15494 1.15607 5.06511 1.08249
5052.19 1.1565 1.1583 5.05386 1.08269
5052.61 1.15995 1.16216 5.0401 1.08289
5053.02 1.16596 1.16749 5.01914 1.0831
5053.43 1.17499 1.17399 4.99638 1.0833
5053.85 1.18679 1.18127 4.95227 1.08351
5054.26 1.19896 1.18893 4.90873 1.08371
5054.67 1.20903 1.19665 4.88723 1.08392
5055.09 1.2164 1.2042 4.86813 1.08412
5055.5 1.22114 1.21139 4.85298 1.08433
5055.91 1.22399 1.21813 4.83933 1.08453
5056.33 1.2261 1.22435 4.82626 1.08474
5056.74 1.22926 1.23005 4.81366 1.08495
5057.16 1.23576 1.23528 4.79371 1.08515
5057.57 1.24523 1.2401 4.76175 1.08536
5057.98 1.25358 1.24451 4.73548 1.08556
5058.4 1.25787 1.2484 4.7305 1.08577
5058.81 1.25829 1.25155 4.72596 1.08597
5059.23 1.25584 1.25376 4.73655 1.08618
5059.64 1.25295 1.25493 4.74717 1.08639
5060.05 1.25197 1.2551 4.75093 1.08659
5060.47 1.25272 1.25441 4.7535 1.0868
5060.88 1.25399 1.25292 4.7635 1.087
5061.3 1.25427 1.25059 4.77706 1.08721
5061.71 1.25192 1.24721 4.79676 1.08741
5062.12 1.24601 1.24258 4.82256 1.08761
5062.54 1.23637 1.23664 4.85393 1.08782
5062.95 1.22442 1.22952 4.89645 1.08802
5063.37 1.21405 1.22157 4.93627 1.08823
5063.78 1.20747 1.21318 4.95931 1.08843
5064.2 1.20224 1.20475 4.98251 1.08863
5064.61 1.1957 1.19662 5.01114 1.08883
5065.02 1.18736 1.1891 5.04009 1.08904
5065.44 1.17747 1.1824 5.07263 1.08924
5065.85 1.16802 1.17668 5.10624 1.08944
5066.27 1.16148 1.17195 5.12913 1.08964
5066.68 1.15822 1.16815 5.14604 1.08984
5067.1 1.15707 1.16521 5.15443 1.09004
5067.51 1.15719 1.16312 5.15326 1.09024
5067.93 1.15799 1.16197 5.14996 1.09043
5068.34 1.15905 1.16184 5.14178 1.09063
5068.75 1.16006 1.16272 5.13401 1.09083
5069.17 1.16103 1.16441 5.1288 1.09102
5069.58 1.16261 1.16656 5.1236 1.09122
5070.0 1.16534 1.16878 5.12258 1.09141
5070.41 1.16874 1.17076 5.12171 1.09161
5070.83 1.17209 1.17234 5.11121 1.0918
5071.24 1.17493 1.17356 5.09821 1.09199
5071.66 1.17699 1.17452 5.07526 1.09218
5072.07 1.17845 1.1754 5.04646 1.09237
5072.49 1.17985 1.17633 5.0274 1.09256
5072.9 1.18117 1.17732 5.01979 1.09275
5073.32 1.1818 1.17824 5.01366 1.09294
5073.73 1.18143 1.17886 5.0112 1.09313
5074.15 1.18029 1.17892 5.00954 1.09331
5074.56 1.17873 1.17824 5.01383 1.0935
5074.98 1.17729 1.17677 5.01812 1.09368
5075.39 1.17623 1.17461 5.03694 1.09386
5075.81 1.17432 1.17184 5.05662 1.09404
5076.23 1.17012 1.1685 5.0851 1.09422
5076.64 1.16395 1.16453 5.11626 1.0944
5077.06 1.15694 1.15981 5.14884 1.09458
5077.47 1.15006 1.15425 5.18246 1.09476
5077.89 1.14415 1.14786 5.21489 1.09493
5078.3 1.13916 1.1408 5.24575 1.09511
5078.72 1.134 1.13336 5.27663 1.09528
5079.13 1.12796 1.12597 5.30711 1.09545
5079.55 1.12114 1.1191 5.33732 1.09562
5079.96 1.11383 1.11322 5.36373 1.09579
5080.38 1.10667 1.10868 5.39034 1.09596
5080.8 1.10042 1.10567 5.40916 1.09612
5081.21 1.09607 1.10418 5.42767 1.09629
5081.63 1.09459 1.10413 5.41079 1.09645
5082.04 1.09614 1.10538 5.38452 1.09661
5082.46 1.1005 1.10786 5.35251 1.09677
5082.87 1.10698 1.11159 5.31725 1.09693
5083.29 1.11456 1.1166 5.28164 1.09709
5083.71 1.12226 1.12287 5.24557 1.09724
5084.12 1.12916 1.13022 5.21302 1.09739
5084.54 1.13526 1.13832 5.18828 1.09755
5084.95 1.14217 1.14671 5.1622 1.0977
5085.37 1.15085 1.15495 5.1263 1.09784
5085.79 1.16011 1.16271 5.09078 1.09799
5086.2 1.16855 1.16986 5.06328 1.09814
5086.62 1.17534 1.17641 5.03624 1.09828
5087.04 1.18006 1.18248 5.02249 1.09842
5087.45 1.18372 1.18819 5.01194 1.09856
5087.87 1.18796 1.19362 5.0007 1.0987
5088.28 1.19327 1.19877 4.98909 1.09883
5088.7 1.19938 1.20357 4.97637 1.09897
5089.12 1.20582 1.20797 4.96248 1.0991
5089.53 1.21191 1.21197 4.94802 1.09923
5089.95 1.21689 1.21558 4.9323 1.09936
5090.37 1.21981 1.21887 4.91665 1.09949
5090.78 1.22078 1.2219 4.90109 1.09961
5091.2 1.22253 1.22472 4.88559 1.09973
5091.62 1.22726 1.22729 4.86572 1.09985
5092.03 1.23336 1.22952 4.84595 1.09997
5092.45 1.23827 1.23119 4.83052 1.10008
5092.87 1.23948 1.23204 4.81598 1.1002
5093.28 1.23485 1.2318 4.81405 1.10031
5093.7 1.22634 1.23025 4.81812 1.10042
5094.12 1.21832 1.22734 4.82228 1.10053
5094.53 1.2127 1.22312 4.82654 1.10063
5094.95 1.20893 1.21778 4.83175 1.10073
5095.37 1.20619 1.2115 4.8387 1.10083
5095.78 1.20341 1.20446 4.84638 1.10093
5096.2 1.19943 1.19686 4.857 1.10102
5096.62 1.193 1.1889 4.86919 1.10112
5097.03 1.18353 1.18091 4.91785 1.10121
5097.45 1.17285 1.17323 4.96725 1.1013
5097.87 1.16314 1.16621 5.00838 1.10138
5098.29 1.1554 1.16015 5.04881 1.10146
5098.7 1.15018 1.15529 5.08091 1.10154
5099.12 1.14723 1.15183 5.10995 1.10162
5099.54 1.14593 1.14991 5.12492 1.1017
5099.95 1.14574 1.14959 5.12903 1.10177
5100.37 1.14628 1.15073 5.13454 1.10184
5100.79 1.14736 1.15302 5.14206 1.10191
5101.21 1.1491 1.15601 5.14865 1.10197
5101.62 1.15161 1.15927 5.15246 1.10203
5102.04 1.15503 1.16246 5.15507 1.10209
5102.46 1.15935 1.16539 5.14654 1.10215
5102.88 1.16425 1.168 5.13803 1.1022
5103.29 1.16924 1.17016 5.12009 1.10225
5103.71 1.1734 1.17168 5.10165 1.1023
5104.13 1.17571 1.1723 5.09818 1.10235
5104.55 1.17562 1.17181 5.09874 1.10239
5104.96 1.17285 1.17018 5.11607 1.10243
5105.38 1.16762 1.16762 5.14337 1.10247
5105.8 1.16056 1.16446 5.17291 1.1025
5106.22 1.15311 1.16102 5.20494 1.10253
5106.63 1.14756 1.15751 5.22947 1.10256
5107.05 1.14511 1.15403 5.23767 1.10258
5107.47 1.14519 1.15068 5.24338 1.1026
5107.89 1.14665 1.14767 5.23669 1.10262
5108.31 1.14732 1.14532 5.23025 1.10264
5108.72 1.14569 1.14394 5.23846 1.10265
5109.14 1.14336 1.1437 5.24668 1.10266
5109.56 1.14242 1.14457 5.24279 1.10266
5109.98 1.14338 1.14642 5.23696 1.10267
5110.4 1.14616 1.1491 5.22387 1.10267
5110.81 1.1504 1.15261 5.20785 1.10266
5111.23 1.15565 1.15698 5.18544 1.10266
5111.65 1.16168 1.16227 5.15805 1.10265
5112.07 1.16846 1.16833 5.12936 1.10264
5112.49 1.17584 1.1749 5.0987 1.10262
5112.91 1.18348 1.18166 5.06954 1.10261
5113.32 1.19104 1.18842 5.0442 1.10259
5113.74 1.19827 1.19509 5.01975 1.10257
5114.16 1.20496 1.20171 5.00168 1.10254
5114.58 1.21103 1.20823 4.9837 1.10252
5115.0 1.21639 1.2145 4.96467 1.10249
5115.42 1.22081 1.22026 4.94569 1.10246
5115.83 1.22406 1.22528 4.92783 1.10242
5116.25 1.22631 1.22942 4.91031 1.10239
5116.67 1.22789 1.23265 4.89425 1.10235
5117.09 1.22928 1.23495 4.87901 1.10231
5117.51 1.231 1.23625 4.86739 1.10227
5117.93 1.23273 1.23639 4.85935 1.10222
5118.35 1.23338 1.23522 4.85849 1.10218
5118.77 1.23216 1.23267 4.87091 1.10213
5119.18 1.22882 1.22876 4.88628 1.10208
5119.6 1.22324 1.22359 4.91328 1.10203
5120.02 1.21561 1.21726 4.94135 1.10198
5120.44 1.20623 1.20982 4.98476 1.10193
5120.86 1.1957 1.20139 5.02874 1.10187
5121.28 1.18466 1.19213 5.08306 1.10181
5121.7 1.17346 1.18235 5.13931 1.10176
5122.12 1.16239 1.1724 5.18962 1.1017
5122.54 1.1518 1.1626 5.23845 1.10164
5122.96 1.14209 1.1532 5.27807 1.10157
5123.37 1.1339 1.14436 5.31176 1.10151
5123.79 1.12795 1.1362 5.34008 1.10145
5124.21 1.12399 1.12886 5.36197 1.10138
5124.63 1.12067 1.12247 5.38207 1.10131
5125.05 1.1171 1.11717 5.39809 1.10125
5125.47 1.11326 1.113 5.41278 1.10118
5125.89 1.10947 1.10997 5.42065 1.10111
5126.31 1.10678 1.10801 5.42793 1.10104
5126.73 1.10592 1.10706 5.4094 1.10097
5127.15 1.10622 1.10707 5.39097 1.10089
5127.57 1.10684 1.108 5.38977 1.10082
5127.99 1.10791 1.10982 5.39095 1.10075
5128.41 1.10996 1.11246 5.39114 1.10068
5128.83 1.1135 1.11577 5.39096 1.1006
5129.25 1.11901 1.11962 5.37154 1.10053
5129.67 1.12609 1.12387 5.33884 1.10045
5130.09 1.13362 1.12841 5.3095 1.10038
5130.51 1.1407 1.13319 5.28423 1.1003
5130.93 1.1467 1.13819 5.25927 1.10023
5131.35 1.15126 1.1434 5.23479 1.10015
5131.77 1.15447 1.14881 5.21019 1.10008
5132.19 1.15682 1.15429 5.18415 1.1
5132.6 1.15975 1.15961 5.15833 1.09992
5133.02 1.16437 1.1644 5.13414 1.09985
5133.44 1.16992 1.16826 5.11012 1.09977
5133.86 1.17528 1.17097 5.09257 1.0997
5134.28 1.17981 1.17251 5.07606 1.09962
5134.71 1.18305 1.17308 5.06625 1.09955
5135.13 1.18508 1.17289 5.05896 1.09948
5135.55 1.18619 1.17203 5.0688 1.0994
5135.97 1.18584 1.17034 5.09096 1.09933
5136.39 1.18287 1.16759 5.11823 1.09926
5136.81 1.17709 1.1637 5.15204 1.09918
5137.23 1.1695 1.1589 5.18736 1.09911
5137.65 1.16138 1.15367 5.22576 1.09904
5138.07 1.15442 1.1485 5.26264 1.09897
5138.49 1.14965 1.14369 5.28953 1.0989
5138.91 1.14633 1.13924 5.3163 1.09883
5139.33 1.1437 1.13506 5.32532 1.09877
5139.75 1.14187 1.13114 5.33437 1.0987
5140.17 1.14111 1.12765 5.33293 1.09863
5140.59 1.14145 1.12486 5.33004 1.09857
5141.01 1.14268 1.12291 5.3176 1.09851
5141.43 1.14355 1.12169 5.30185 1.09844
5141.85 1.14232 1.1209 5.30353 1.09838
5142.27 1.13901 1.12022 5.31691 1.09832
5142.69 1.13492 1.11955 5.33025 1.09827
5143.11 1.13114 1.11901 5.34351 1.09821
5143.53 1.12842 1.11881 5.35511 1.09816
5143.96 1.12713 1.11901 5.36311 1.0981
5144.38 1.12697 1.11942 5.37055 1.09805
5144.8 1.12743 1.11972 5.37542 1.098
5145.22 1.12757 1.11964 5.38026 1.09795
5145.64 1.12664 1.11915 5.38454 1.09791
5146.06 1.1247 1.11846 5.38882 1.09786
5146.48 1.1221 1.11786 5.39257 1.09782
5146.9 1.11973 1.11752 5.39626 1.09778
5147.32 1.11852 1.1174 5.39925 1.09774
5147.75 1.11833 1.11733 5.40204 1.0977
5148.17 1.11853 1.11709 5.39331 1.09767
5148.59 1.11875 1.1166 5.37792 1.09763
5149.01 1.11879 1.11588 5.36143 1.0976
5149.43 1.11853 1.11504 5.34384 1.09757
5149.85 1.11791 1.11418 5.33288 1.09755
5150.27 1.11676 1.11336 5.33364 1.09753
5150.69 1.11474 1.11264 5.33659 1.0975
5151.12 1.11201 1.11212 5.34718 1.09749
5151.54 1.10973 1.11193 5.35738 1.09747
5151.96 1.10909 1.11226 5.36311 1.09746
5152.38 1.11076 1.11322 5.36885 1.09745
5152.8 1.11505 1.11487 5.36233 1.09744
5153.22 1.12092 1.11722 5.35521 1.09743
5153.64 1.12706 1.12027 5.34224 1.09743
5154.07 1.13309 1.12409 5.32802 1.09743
5154.49 1.13906 1.1288 5.31212 1.09744
5154.91 1.1451 1.13447 5.29549 1.09744
5155.33 1.15148 1.14105 5.27764 1.09745
5155.75 1.15856 1.14831 5.25882 1.09747
5156.18 1.1668 1.1559 5.2371 1.09748
5156.6 1.17596 1.16348 5.21135 1.0975
5157.02 1.18502 1.17078 5.18757 1.09752
5157.44 1.19305 1.17761 5.16848 1.09755
5157.86 1.19951 1.18382 5.15061 1.09758
5158.29 1.204 1.18915 5.13908 1.09761
5158.71 1.20637 1.19327 5.12789 1.09765
5159.13 1.20672 1.19582 5.13366 1.09769
5159.55 1.20593 1.19656 5.13945 1.09773
5159.97 1.20481 1.19545 5.15459 1.09778
5160.4 1.20275 1.19258 5.17101 1.09783
5160.82 1.19867 1.18804 5.19654 1.09788
5161.24 1.19153 1.18181 5.22524 1.09794
5161.66 1.1805 1.17371 5.26748 1.098
5162.08 1.16669 1.16347 5.31844 1.09807
5162.51 1.15256 1.15094 5.37237 1.09814
5162.93 1.13841 1.13614 5.42947 1.09822
5163.35 1.1224 1.11924 5.49492 1.09829
5163.77 1.10312 1.10053 5.57503 1.09838
5164.2 1.08005 1.08035 5.66467 1.09846
5164.62 1.05389 1.0591 5.7832 1.09855
5165.04 1.02773 1.03727 5.90412 1.09865
5165.46 1.00417 1.01542 6.01606 1.09875
5165.89 0.983298 0.994122 6.13122 1.09885
5166.31 0.96475 0.973869 6.22283 1.09895
5166.73 0.947974 0.95505 6.31568 1.09906
5167.16 0.932341 0.937961 6.38674 1.09918
5167.58 0.917031 0.92283 6.45443 1.09929
5168.0 0.901334 0.909829 6.53195 1.09941
5168.42 0.886401 0.899038 6.61446 1.09954
5168.85 0.874362 0.890399 6.68005 1.09967
5169.27 0.866071 0.883716 6.73331 1.0998
5169.69 0.861331 0.878728 6.77471 1.09993
5170.12 0.859381 0.875212 6.8015 1.10007
5170.54 0.85887 0.873067 6.81797 1.10021
5170.96 0.859037 0.872357 6.81307 1.10036
5171.39 0.860094 0.873272 6.80444 1.1005
5171.81 0.862457 0.876074 6.78098 1.10065
5172.23 0.866813 0.881027 6.75609 1.10081
5172.65 0.873831 0.888317 6.71201 1.10097
5173.08 0.884017 0.898013 6.66835 1.10113
5173.5 0.897545 0.910004 6.59012 1.10129
5173.92 0.913197 0.92399 6.51136 1.10146
5174.35 0.929533 0.939534 6.41896 1.10163
5174.77 0.946417 0.956133 6.32531 1.1018
5175.19 0.964237 0.973309 6.22851 1.10198
5175.62 0.983066 0.990656 6.1317 1.10215
5176.04 1.00274 1.0078 6.03391 1.10234
5176.46 1.02232 1.02432 5.93607 1.10252
5176.89 1.04019 1.03963 5.85561 1.10271
5177.31 1.05507 1.053 5.79523 1.1029
5177.74 1.06603 1.06361 5.74707 1.10309
5178.16 1.07237 1.07072 5.72333 1.10329
5178.58 1.07366 1.07383 5.7071 1.10348
5179.01 1.06974 1.07279 5.72124 1.10368
5179.43 1.06088 1.0678 5.74021 1.10389
5179.85 1.04754 1.05927 5.82184 1.10409
5180.28 1.03061 1.04778 5.90523 1.1043
5180.7 1.01114 1.03404 5.99915 1.10451
5181.13 0.990655 1.01882 6.09584 1.10472
5181.55 0.970806 1.003 6.1949 1.10494
5181.97 0.953465 0.987492 6.2964 1.10516
5182.4 0.94035 0.973197 6.36184 1.10538
5182.82 0.930812 0.960982 6.41179 1.1056
5183.25 0.92298 0.951708 6.43794 1.10582
5183.67 0.917657 0.946235 6.44654 1.10605
5184.09 0.917825 0.945289 6.42818 1.10628
5184.52 0.926322 0.949265 6.37823 1.10651
5184.94 0.945666 0.958024 6.28497 1.10674
5185.37 0.973515 0.970844 6.11001 1.10697
5185.79 1.00007 0.98663 5.96308 1.10721
5186.22 1.01893 1.00424 5.89603 1.10745
5186.64 1.03235 1.02278 5.83179 1.10769
5187.06 1.0437 1.04161 5.78483 1.10793
5187.49 1.05639 1.06028 5.73843 1.10817
5187.91 1.07273 1.07821 5.67316 1.10842
5188.34 1.09037 1.09469 5.60845 1.10867
5188.76 1.10598 1.10893 5.55471 1.10892
5189.19 1.1184 1.12031 5.50344 1.10917
5189.61 1.12729 1.12857 5.4654 1.10942
5190.04 1.13266 1.13383 5.43231 1.10967
5190.46 1.13473 1.1365 5.41248 1.10993
5190.88 1.13423 1.13705 5.40095 1.11018
5191.31 1.13226 1.13595 5.40212 1.11044
5191.73 1.12943 1.13367 5.41635 1.1107
5192.16 1.12582 1.13072 5.42948 1.11096
5192.58 1.1219 1.12773 5.44069 1.11123
5193.01 1.11866 1.12533 5.4501 1.11149
5193.43 1.11737 1.12407 5.45421 1.11175
5193.86 1.11979 1.12427 5.45132 1.11202
5194.28 1.12657 1.12603 5.40502 1.11229
5194.71 1.13541 1.12925 5.35963 1.11256
5195.13 1.14393 1.13381 5.33067 1.11282
5195.56 1.15149 1.13956 5.30193 1.1131
5195.98 1.15799 1.14641 5.28159 1.11337
5196.41 1.16411 1.15419 5.26224 1.11364
5196.83 1.17071 1.16265 5.23772 1.11391
5197.26 1.17792 1.1714 5.21194 1.11419
5197.68 1.18551 1.17998 5.18703 1.11446
5198.11 1.1931 1.18793 5.16264 1.11474
5198.54 1.20023 1.1949 5.14088 1.11501
5198.96 1.20641 1.20063 5.12122 1.11529
5199.39 1.21115 1.20497 5.10697 1.11557
5199.81 1.21438 1.20782 5.09956 1.11585
5200.24 1.21654 1.20907 5.09475 1.11613
5200.66 1.21753 1.20857 5.09541 1.11641
5201.09 1.21639 1.20617 5.09997 1.11669
5201.51 1.21222 1.20171 5.11965 1.11697
5201.94 1.20455 1.19514 5.14249 1.11725
5202.36 1.1934 1.18654 5.19618 1.11753
5202.79 1.18017 1.17617 5.25071 1.11781
5203.22 1.16625 1.16447 5.29844 1.1181
5203.64 1.15196 1.1519 5.34665 1.11838
5204.07 1.13737 1.13892 5.39712 1.11866
5204.49 1.12288 1.12586 5.44857 1.11895
5204.92 1.10909 1.11299 5.50379 1.11923
5205.34 1.09725 1.1006 5.56089 1.11951
5205.77 1.08876 1.0891 5.58851 1.1198
5206.2 1.08301 1.07903 5.59893 1.12008
5206.62 1.07798 1.07091 5.61475 1.12036
5207.05 1.07281 1.06514 5.63557 1.12065
5207.47 1.06772 1.0619 5.65969 1.12093
5207.9 1.06388 1.06125 5.68858 1.12121
5208.33 1.0635 1.06321 5.70154 1.1215
5208.75 1.06756 1.06787 5.67665 1.12178
5209.18 1.07473 1.07529 5.64905 1.12206
5209.61 1.08382 1.08534 5.60922 1.12235
5210.03 1.09456 1.09761 5.56882 1.12263
5210.46 1.10688 1.1115 5.51694 1.12291
5210.88 1.12105 1.12628 5.46577 1.12319
5211.31 1.13704 1.14132 5.39856 1.12347
5211.74 1.15336 1.15612 5.33197 1.12376
5212.16 1.16832 1.17029 5.27383 1.12404
5212.59 1.1816 1.18352 5.21786 1.12432
5213.02 1.19345 1.19547 5.16901 1.12459
5213.44 1.20433 1.20587 5.12298 1.12487
5213.87 1.21473 1.21454 5.08722 1.12515
5214.3 1.22395 1.22146 5.0574 1.12543
5214.72 1.23052 1.22675 5.03786 1.12571
5215.15 1.23421 1.23076 5.02756 1.12598
5215.58 1.23605 1.23392 5.01825 1.12626
5216.0 1.23714 1.2367 5.0103 1.12653
5216.43 1.23862 1.23948 5.0001 1.1268
5216.86 1.24133 1.24249 4.98475 1.12708
5217.28 1.24557 1.2458 4.96865 1.12735
5217.71 1.25118 1.24938 4.94922 1.12762
5218.14 1.25718 1.25316 4.93072 1.12789
5218.56 1.26257 1.2571 4.92064 1.12816
5218.99 1.26672 1.26111 4.91059 1.12842
5219.42 1.26933 1.26504 4.91546 1.12869
5219.85 1.27119 1.26858 4.92065 1.12896
5220.27 1.27311 1.2713 4.92211 1.12922
5220.7 1.2743 1.27269 4.92303 1.12948
5221.13 1.27355 1.27232 4.92772 1.12975
5221.55 1.27035 1.26992 4.93357 1.13001
5221.98 1.26465 1.2654 4.94344 1.13027
5222.41 1.25735 1.25884 4.95542 1.13053
5222.84 1.24982 1.25044 4.97676 1.13078
5223.26 1.24177 1.24042 5.00588 1.13104
5223.69 1.2315 1.22904 5.03931 1.1313
5224.12 1.21864 1.2167 5.07817 1.13155
5224.55 1.20447 1.20399 5.11913 1.13181
5224.97 1.19112 1.1917 5.16383 1.13206
5225.4 1.18195 1.18067 5.2024 1.13231
5225.83 1.17804 1.1716 5.21932 1.13256
5226.26 1.17572 1.16492 5.23595 1.13281
5226.68 1.17212 1.16078 5.25024 1.13306
5227.11 1.16818 1.15919 5.26427 1.13331
5227.54 1.16575 1.16018 5.26604 1.13356
5227.97 1.16784 1.16376 5.26781 1.13381
5228.39 1.17682 1.16978 5.2191 1.13405
5228.82 1.19057 1.17775 5.16682 1.13429
5229.25 1.20571 1.18687 5.11912 1.13454
5229.68 1.22011 1.19625 5.07292 1.13478
5230.11 1.23218 1.20522 5.0362 1.13502
5230.53 1.24097 1.2135 5.00339 1.13526
5230.96 1.24597 1.22117 4.99085 1.1355
5231.39 1.24817 1.22834 4.9911 1.13574
5231.82 1.24963 1.235 4.98677 1.13597
5232.25 1.25155 1.24093 4.978 1.13621
5232.67 1.25422 1.24595 4.96727 1.13645
5233.1 1.25772 1.2501 4.95365 1.13668
5233.53 1.26189 1.25374 4.93854 1.13691
5233.96 1.26643 1.25738 4.91996 1.13714
5234.39 1.27083 1.2615 4.90335 1.13738
5234.81 1.27486 1.26633 4.89421 1.1376
5235.24 1.27907 1.27192 4.88458 1.13783
5235.67 1.28396 1.27817 4.87031 1.13806
5236.1 1.28963 1.28496 4.85609 1.13829
5236.53 1.29582 1.29211 4.83117 1.13851
5236.96 1.30104 1.29941 4.80644 1.13874
5237.38 1.30406 1.30656 4.79883 1.13896
5237.81 1.30634 1.3133 4.79316 1.13918
5238.24 1.31007 1.31947 4.77809 1.13941
5238.67 1.31607 1.32505 4.76072 1.13963
5239.1 1.32437 1.33009 4.73239 1.13985
5239.53 1.33327 1.33464 4.6996 1.14006
5239.96 1.34016 1.33861 4.68542 1.14028
5240.39 1.34409 1.34184 4.68357 1.1405
5240.81 1.3454 1.34417 4.68407 1.14071
5241.24 1.34463 1.34552 4.68693 1.14093
5241.67 1.34246 1.34594 4.69131 1.14114
5242.1 1.33973 1.34558 4.69799 1.14135
5242.53 1.33749 1.34459 4.70372 1.14156
5242.96 1.33608 1.34309 4.70723 1.14177
5243.39 1.3347 1.34111 4.7118 1.14198
5243.82 1.33262 1.33857 4.72054 1.14219
5244.25 1.32955 1.33536 4.72979 1.1424
5244.67 1.32537 1.33132 4.7432 1.1426
5245.1 1.32022 1.32641 4.75674 1.14281
5245.53 1.31425 1.32064 4.77735 1.14301
5245.96 1.30752 1.31413 4.7981 1.14322
5246.39 1.30013 1.30707 4.82026 1.14342
5246.82 1.29253 1.29971 4.84271 1.14362
5247.25 1.28531 1.29232 4.86474 1.14382
5247.68 1.27902 1.28525 4.88679 1.14402
5248.11 1.27411 1.27877 4.90449 1.14421
5248.54 1.27001 1.27306 4.92051 1.14441
5248.97 1.2656 1.26814 4.93927 1.14461
5249.4 1.26061 1.26393 4.95976 1.1448
5249.83 1.25534 1.26042 4.97901 1.14499
5250.26 1.2503 1.25774 4.99715 1.14519
5250.69 1.24615 1.25615 5.0099 1.14538
5251.12 1.24386 1.25586 5.01547 1.14557
5251.54 1.24474 1.25688 5.01733 1.14576
5251.97 1.24874 1.25897 5.01189 1.14594
5252.4 1.25377 1.26175 5.00524 1.14613
5252.83 1.25793 1.26495 4.99479 1.14632
5253.26 1.26008 1.26854 4.98372 1.1465
5253.69 1.26077 1.27272 4.969 1.14669
5254.12 1.26463 1.27775 4.95281 1.14687
5254.55 1.27514 1.28374 4.91051 1.14705
5254.98 1.28969 1.29055 4.86875 1.14723
5255.41 1.30452 1.29788 4.83122 1.14741
5255.84 1.31681 1.30528 4.79426 1.14759
5256.27 1.32441 1.31231 4.7701 1.14777
5256.7 1.32793 1.31856 4.74798 1.14794
5257.13 1.32894 1.32372 4.7451 1.14812
5257.56 1.32861 1.32753 4.74775 1.14829
5257.99 1.32789 1.32987 4.75136 1.14846
5258.42 1.32707 1.33064 4.75542 1.14864
5258.85 1.32593 1.32965 4.75857 1.14881
5259.28 1.3232 1.32655 4.7611 1.14898
5259.71 1.31684 1.32092 4.7859 1.14915
5260.15 1.30645 1.31232 4.83355 1.14931
5260.58 1.29333 1.30061 4.88314 1.14948
5261.01 1.27851 1.28609 4.9353 1.14965
5261.44 1.2626 1.26941 4.98883 1.14981
5261.87 1.2459 1.25144 5.04435 1.14997
5262.3 1.22821 1.23296 5.10358 1.15014
5262.73 1.20968 1.21445 5.17349 1.1503
5263.16 1.19125 1.19618 5.24379 1.15046
5263.59 1.17375 1.17832 5.30871 1.15062
5264.02 1.15754 1.16117 5.37448 1.15078
5264.45 1.14277 1.14513 5.43391 1.15093
5264.88 1.12926 1.13066 5.49433 1.15109
5265.31 1.11685 1.11804 5.54134 1.15124
5265.74 1.10577 1.10729 5.5883 1.1514
5266.17 1.09634 1.09826 5.62301 1.15155
5266.6 1.08878 1.09077 5.65608 1.1517
5267.04 1.08325 1.08478 5.67846 1.15185
5267.47 1.07986 1.08039 5.69784 1.152
5267.9 1.07864 1.07778 5.69774 1.15215
5268.33 1.07904 1.07704 5.68891 1.1523
5268.76 1.08022 1.07812 5.67725 1.15244
5269.19 1.08212 1.08087 5.66375 1.15259
5269.62 1.08525 1.08521 5.64593 1.15273
5270.05 1.09029 1.09122 5.6241 1.15288
5270.48 1.09807 1.09908 5.59101 1.15302
5270.92 1.10877 1.10891 5.54315 1.15316
5271.35 1.12185 1.12059 5.49184 1.1533
5271.78 1.13654 1.1337 5.43353 1.15344
5272.21 1.1518 1.14768 5.37624 1.15358
5272.64 1.1667 1.16206 5.32015 1.15371
5273.07 1.18046 1.17665 5.26766 1.15385
5273.5 1.19321 1.19151 5.22938 1.15398
5273.94 1.20723 1.20674 5.18954 1.15411
5274.37 1.22409 1.22225 5.1283 1.15425
5274.8 1.24205 1.23765 5.06813 1.15438
5275.23 1.25883 1.25238 5.01136 1.15451
5275.66 1.27244 1.26603 4.95554 1.15464
5276.09 1.28166 1.27847 4.92221 1.15476
5276.52 1.28879 1.28984 4.89131 1.15489
5276.96 1.29688 1.3003 4.86267 1.15502
5277.39 1.30606 1.3098 4.83469 1.15514
5277.82 1.31526 1.31803 4.81234 1.15527
5278.25 1.32335 1.32451 4.792 1.15539
5278.68 1.3292 1.32889 4.7806 1.15551
5279.12 1.33214 1.33108 4.77381 1.15563
5279.55 1.33183 1.33132 4.77436 1.15575
5279.98 1.32894 1.33003 4.78036 1.15587
5280.41 1.3249 1.32767 4.78747 1.15599
5280.84 1.32092 1.32468 4.79574 1.1561
5281.28 1.31788 1.32148 4.80406 1.15622
5281.71 1.31588 1.31851 4.81246 1.15633
5282.14 1.31394 1.3162 4.82094 1.15645
5282.57 1.31203 1.31492 4.82953 1.15656
5283.0 1.31171 1.31491 4.83438 1.15667
5283.44 1.31418 1.31631 4.8275 1.15678
5283.87 1.31973 1.31921 4.81726 1.15689
5284.3 1.32785 1.32368 4.78946 1.157
5284.73 1.3363 1.32978 4.76187 1.15711
5285.17 1.34352 1.33747 4.73435 1.15721
5285.6 1.35087 1.34657 4.70705 1.15732
5286.03 1.35994 1.3567 4.67831 1.15742
5286.46 1.37087 1.36739 4.64982 1.15753
5286.9 1.38307 1.37814 4.61986 1.15763
5287.33 1.39413 1.38851 4.59004 1.15773
5287.76 1.40157 1.39814 4.56959 1.15783
5288.19 1.40626 1.40674 4.55105 1.15793
5288.63 1.41033 1.41414 4.5354 1.15803
5289.06 1.41481 1.4202 4.52072 1.15813
5289.49 1.42008 1.42489 4.5085 1.15823
5289.93 1.4257 1.4282 4.49747 1.15832
5290.36 1.4307 1.43019 4.48937 1.15842
5290.79 1.43371 1.43087 4.48324 1.15851
5291.22 1.4332 1.43022 4.48589 1.15861
5291.66 1.42881 1.4282 4.49677 1.1587
5292.09 1.42135 1.42475 4.51362 1.15879
5292.52 1.41255 1.41982 4.53824 1.15888
5292.96 1.40504 1.41345 4.56042 1.15897
5293.39 1.39936 1.40574 4.57804 1.15906
5293.82 1.39282 1.39681 4.59934 1.15915
5294.25 1.38368 1.38681 4.63002 1.15924
5294.69 1.37218 1.37588 4.66253 1.15933
5295.12 1.35929 1.36423 4.70139 1.15941
5295.55 1.34701 1.35219 4.73896 1.1595
5295.99 1.33693 1.34017 4.76457 1.15958
5296.42 1.32912 1.32867 4.78971 1.15966
5296.85 1.32331 1.31815 4.8021 1.15975
5297.29 1.31886 1.30897 4.81454 1.15983
5297.72 1.31505 1.30138 4.82091 1.15991
5298.15 1.311 1.29561 4.82712 1.15999
5298.59 1.30611 1.29187 4.84354 1.16007
5299.02 1.30157 1.29037 4.86124 1.16015
5299.46 1.29894 1.29121 4.87134 1.16022
5299.89 1.29859 1.29436 4.87978 1.1603
5300.32 1.30029 1.29962 4.8802 1.16038
5300.76 1.30352 1.30669 4.87786 1.16045
5301.19 1.30777 1.31525 4.85728 1.16053
5301.62 1.31463 1.32502 4.82791 1.1606
5302.06 1.32687 1.33573 4.78644 1.16067
5302.49 1.34398 1.34707 4.7372 1.16074
5302.93 1.36294 1.35869 4.68838 1.16082
5303.36 1.38032 1.37017 4.64001 1.16089
5303.79 1.39257 1.3811 4.60537 1.16096
5304.23 1.3997 1.3912 4.58719 1.16103
5304.66 1.40586 1.40032 4.5688 1.16109
5305.1 1.41316 1.40848 4.54999 1.16116
5305.53 1.42051 1.41575 4.53288 1.16123
5305.96 1.42653 1.42218 4.51963 1.16129
5306.4 1.42967 1.42774 4.51032 1.16136
5306.83 1.42975 1.43237 4.51446 1.16142
5307.27 1.42935 1.43605 4.51646 1.16149
5307.7 1.4306 1.43886 4.50646 1.16155
5308.13 1.4335 1.44101 4.49628 1.16161
5308.57 1.43761 1.44273 4.48379 1.16167
5309.0 1.44213 1.44418 4.47138 1.16173
5309.44 1.44618 1.44538 4.46378 1.16179
5309.87 1.4489 1.44618 4.45619 1.16185
5310.31 1.44958 1.44641 4.45729 1.16191
5310.74 1.4485 1.44593 4.45899 1.16197
5311.18 1.44623 1.44474 4.4639 1.16203
5311.61 1.44337 1.443 4.46932 1.16209
5312.04 1.44046 1.44091 4.47703 1.16214
5312.48 1.43749 1.4386 4.48535 1.1622
5312.91 1.43419 1.43612 4.49459 1.16225
5313.35 1.43061 1.43339 4.50421 1.16231
5313.78 1.42696 1.43032 4.51411 1.16236
5314.22 1.42336 1.42687 4.52417 1.16241
5314.65 1.41988 1.4231 4.5344 1.16246
5315.09 1.41621 1.4191 4.54475 1.16252
5315.52 1.41177 1.41507 4.55684 1.16257
5315.96 1.40711 1.41119 4.57062 1.16262
5316.39 1.40387 1.40768 4.58069 1.16267
5316.83 1.40302 1.4047 4.58602 1.16272
5317.26 1.40469 1.40228 4.58528 1.16276
5317.7 1.40707 1.40025 4.57437 1.16281
5318.13 1.40578 1.39829 4.57436 1.16286
5318.57 1.39927 1.39602 4.59923 1.16291
5319.0 1.39105 1.39317 4.6223 1.16295
5319.44 1.38439 1.38972 4.63907 1.163
5319.87 1.3811 1.38581 4.65218 1.16304
5320.31 1.38128 1.3816 4.64692 1.16309
5320.74 1.38133 1.37714 4.64432 1.16313
5321.18 1.37824 1.37224 4.6654 1.16317
5321.61 1.37237 1.36657 4.68679 1.16321
5322.05 1.36466 1.35982 4.71262 1.16326
5322.49 1.35581 1.3518 4.73867 1.1633
5322.92 1.34639 1.34251 4.76689 1.16334
5323.36 1.33662 1.33208 4.79543 1.16338
5323.79 1.32647 1.32072 4.83061 1.16342
5324.23 1.31526 1.30865 4.86688 1.16346
5324.66 1.3022 1.29609 4.90903 1.1635
5325.1 1.28736 1.28327 4.95282 1.16353
5325.53 1.27137 1.27046 5.00339 1.16357
5325.97 1.25631 1.25796 5.05663 1.16361
5326.41 1.24475 1.24612 5.09286 1.16364
5326.84 1.23638 1.23528 5.12188 1.16368
5327.28 1.22935 1.22587 5.14647 1.16371
5327.71 1.22295 1.21837 5.16857 1.16375
5328.15 1.21741 1.21339 5.18677 1.16378
5328.59 1.21468 1.2115 5.20204 1.16382
5329.02 1.21799 1.21308 5.18837 1.16385
5329.46 1.22693 1.21812 5.14707 1.16388
5329.89 1.23757 1.22618 5.10835 1.16392
5330.33 1.24731 1.23657 5.07266 1.16395
5330.77 1.25528 1.24857 5.0403 1.16398
5331.2 1.26231 1.26167 5.01301 1.16401
5331.64 1.27136 1.27559 4.98034 1.16404
5332.07 1.28401 1.29018 4.93608 1.16407
5332.51 1.29939 1.30522 4.89139 1.1641
5332.95 1.31633 1.3203 4.84436 1.16413
5333.38 1.33354 1.33481 4.79728 1.16416
5333.82 1.3496 1.34808 4.74794 1.16419
5334.26 1.36277 1.35952 4.70323 1.16422
5334.69 1.37198 1.36874 4.68504 1.16425
5335.13 1.37806 1.3756 4.66747 1.16427
5335.57 1.382 1.38015 4.6571 1.1643
5336.0 1.38429 1.38253 4.64681 1.16433
5336.44 1.38521 1.38295 4.64402 1.16436
5336.88 1.38458 1.38156 4.64124 1.16438
5337.31 1.38215 1.37856 4.6533 1.16441
5337.75 1.37786 1.37419 4.66629 1.16444
5338.19 1.37178 1.36876 4.68448 1.16446
5338.62 1.36444 1.36268 4.70346 1.16449
5339.06 1.35656 1.35636 4.72683 1.16452
5339.5 1.34934 1.35019 4.7513 1.16454
5339.93 1.34396 1.34453 4.76568 1.16457
5340.37 1.34035 1.3397 4.77692 1.16459
5340.81 1.33784 1.3361 4.78549 1.16462
5341.24 1.33609 1.334 4.79295 1.16464
5341.68 1.33499 1.33352 4.798 1.16467
5342.12 1.33466 1.33444 4.80172 1.1647
5342.56 1.33535 1.33627 4.80016 1.16472
5342.99 1.3372 1.3385 4.79484 1.16475
5343.43 1.34026 1.34077 4.78767 1.16477
5343.87 1.34426 1.34301 4.77885 1.1648
5344.3 1.34861 1.34535 4.76879 1.16482
5344.74 1.35246 1.34786 4.75736 1.16485
5345.18 1.35469 1.35041 4.74851 1.16487
5345.62 1.35523 1.35276 4.7434 1.1649
5346.05 1.35527 1.35463 4.739 1.16492
5346.49 1.35562 1.35593 4.7359 1.16495
5346.93 1.35637 1.3568 4.73331 1.16498
5347.37 1.35727 1.35749 4.73192 1.165
5347.8 1.35754 1.35831 4.7308 1.16503
5348.24 1.35709 1.35951 4.73055 1.16505
5348.68 1.35728 1.36131 4.72831 1.16508
5349.12 1.35922 1.36392 4.71696 1.16511
5349.55 1.36304 1.36752 4.70455 1.16513
5349.99 1.36845 1.37222 4.68439 1.16516
5350.43 1.37444 1.37801 4.66411 1.16519
5350.87 1.38042 1.38477 4.64049 1.16522
5351.3 1.3874 1.3923 4.61702 1.16524
5351.74 1.3964 1.4004 4.5905 1.16527
5352.18 1.40688 1.40889 4.56421 1.1653
5352.62 1.41776 1.41762 4.53695 1.16533
5353.06 1.42701 1.42646 4.50987 1.16536
5353.49 1.43297 1.43528 4.49713 1.16539
5353.93 1.43734 1.44395 4.48601 1.16542
5354.37 1.44262 1.45231 4.47326 1.16544
5354.81 1.44939 1.46013 4.46026 1.16548
5355.25 1.45729 1.46717 4.44634 1.16551
5355.68 1.46482 1.47319 4.43224 1.16554
5356.12 1.47021 1.47803 4.42032 1.16557
5356.56 1.47384 1.48168 4.40921 1.1656
5357.0 1.47717 1.48424 4.40104 1.16563
5357.44 1.48038 1.48582 4.39424 1.16567
5357.88 1.48281 1.48643 4.39048 1.1657
5358.31 1.48312 1.48601 4.38851 1.16573
5358.75 1.47966 1.48442 4.39817 1.16577
5359.19 1.47358 1.48161 4.41645 1.1658
5359.63 1.46816 1.47767 4.43051 1.16584
5360.07 1.46474 1.47283 4.44068 1.16587
5360.51 1.46268 1.4673 4.44875 1.16591
5360.95 1.46017 1.4612 4.45447 1.16595
5361.38 1.45431 1.45454 4.46798 1.16598
5361.82 1.44491 1.44734 4.49237 1.16602
5362.26 1.43518 1.43969 4.51517 1.16606
5362.7 1.42718 1.43184 4.53506 1.1661
5363.14 1.421 1.42407 4.55422 1.16614
5363.58 1.41593 1.41656 4.5716 1.16618
5364.02 1.41019 1.40932 4.59165 1.16622
5364.46 1.40271 1.4022 4.61896 1.16626
5364.89 1.39398 1.39504 4.64709 1.16631
5365.33 1.38452 1.38778 4.67753 1.16635
5365.77 1.37456 1.38044 4.70864 1.16639
5366.21 1.36422 1.37308 4.74194 1.16644
5366.65 1.35353 1.36565 4.776 1.16649
5367.09 1.343 1.35801 4.81353 1.16653
5367.53 1.33463 1.35006 4.84988 1.16658
5367.97 1.32998 1.34179 4.86343 1.16663
5368.41 1.32817 1.33343 4.87676 1.16668
5368.85 1.32745 1.3254 4.874 1.16673
5369.29 1.32462 1.31818 4.87125 1.16678
5369.73 1.31741 1.31226 4.89169 1.16683
5370.16 1.30934 1.30797 4.91303 1.16688
5370.6 1.30487 1.30553 4.91022 1.16693
5371.04 1.30514 1.3051 4.9053 1.16699
5371.48 1.30992 1.30685 4.88363 1.16704
5371.92 1.31709 1.31092 4.85965 1.1671
5372.36 1.32416 1.31735 4.83943 1.16716
5372.8 1.33128 1.32595 4.8201 1.16721
5373.24 1.33958 1.33627 4.79323 1.16727
5373.68 1.34939 1.3477 4.7644 1.16733
5374.12 1.36065 1.35961 4.73021 1.16739
5374.56 1.37291 1.37153 4.69433 1.16746
5375.0 1.38554 1.38318 4.65584 1.16752
5375.44 1.39767 1.39435 4.61645 1.16758
5375.88 1.40832 1.40479 4.58702 1.16765
5376.32 1.417 1.41414 4.56326 1.16772
5376.76 1.4236 1.42199 4.54684 1.16778
5377.2 1.42839 1.42805 4.53548 1.16785
5377.64 1.43193 1.43227 4.52958 1.16792
5378.08 1.43421 1.43483 4.52824 1.16799
5378.52 1.43473 1.43603 4.5281 1.16806
5378.96 1.43348 1.43613 4.52915 1.16814
5379.4 1.43094 1.43529 4.53125 1.16821
5379.84 1.42797 1.43357 4.53461 1.16829
5380.28 1.42578 1.43107 4.54096 1.16836
5380.72 1.42437 1.42802 4.55169 1.16844
5381.16 1.42221 1.42479 4.56233 1.16852
5381.6 1.4186 1.42178 4.57278 1.1686
5382.04 1.41415 1.41923 4.58293 1.16868
5382.48 1.41024 1.41722 4.59239 1.16877
5382.92 1.40932 1.41566 4.59627 1.16885
5383.36 1.41192 1.41441 4.58547 1.16894
5383.8 1.41504 1.4134 4.5777 1.16902
5384.24 1.41629 1.41263 4.5798 1.16911
5384.68 1.41542 1.41214 4.58397 1.1692
5385.12 1.41322 1.41187 4.59699 1.16929
5385.56 1.41227 1.41165 4.60736 1.16938
5386.01 1.41377 1.41118 4.60197 1.16948
5386.45 1.41471 1.41016 4.59808 1.16957
5386.89 1.4123 1.40835 4.60697 1.16967
5387.33 1.40642 1.40568 4.61671 1.16977
5387.77 1.39814 1.4022 4.63883 1.16987
5388.21 1.39082 1.39803 4.6607 1.16997
5388.65 1.38718 1.39335 4.66362 1.17007
5389.09 1.38548 1.38833 4.66656 1.17017
5389.53 1.38333 1.38309 4.6753 1.17028
5389.97 1.37981 1.37769 4.6842 1.17038
5390.41 1.37466 1.37207 4.69864 1.17049
5390.86 1.36897 1.36614 4.71351 1.1706
5391.3 1.36386 1.35988 4.73046 1.1707
5391.74 1.35869 1.35338 4.74774 1.17081
5392.18 1.35238 1.34691 4.76979 1.17093
5392.62 1.34486 1.34075 4.79278 1.17104
5393.06 1.33659 1.33508 4.8207 1.17115
5393.5 1.32919 1.32992 4.84993 1.17127
5393.94 1.32439 1.32512 4.86587 1.17138
5394.38 1.3212 1.32059 4.87802 1.1715
5394.83 1.31747 1.31633 4.89248 1.17162
5395.27 1.31257 1.31253 4.90781 1.17173
5395.71 1.30684 1.30939 4.92592 1.17185
5396.15 1.30249 1.30704 4.94532 1.17197
5396.59 1.30253 1.30554 4.9382 1.1721
5397.03 1.30641 1.3049 4.91757 1.17222
5397.48 1.31131 1.30524 4.90058 1.17234
5397.92 1.31541 1.30669 4.88581 1.17247
5398.36 1.31773 1.30932 4.8762 1.17259
5398.8 1.31857 1.31295 4.87022 1.17272
5399.24 1.31923 1.31706 4.86829 1.17284
5399.68 1.32021 1.32098 4.8697 1.17297
5400.13 1.32132 1.32406 4.87055 1.1731
5400.57 1.32233 1.32592 4.87084 1.17323
5401.01 1.32305 1.3265 4.87016 1.17336
5401.45 1.32335 1.32589 4.86839 1.17349
5401.89 1.32313 1.32418 4.87011 1.17362
5402.33 1.3218 1.32131 4.87633 1.17376
5402.78 1.31826 1.31715 4.88683 1.17389
5403.22 1.31197 1.3116 4.90379 1.17402
5403.66 1.30323 1.30483 4.92613 1.17416
5404.1 1.29359 1.2973 4.95795 1.1743
5404.55 1.28623 1.28964 4.98407 1.17443
5404.99 1.28226 1.2825 4.99807 1.17457
5405.43 1.2793 1.27634 5.01283 1.17471
5405.87 1.27538 1.27144 5.02938 1.17484
5406.31 1.26972 1.26789 5.04788 1.17498
5406.76 1.26314 1.26573 5.07188 1.17512
5407.2 1.25925 1.26506 5.08743 1.17526
5407.64 1.26038 1.26601 5.07326 1.1754
5408.08 1.26565 1.2687 5.05635 1.17554
5408.53 1.27377 1.27313 5.02772 1.17569
5408.97 1.28349 1.27915 4.99684 1.17583
5409.41 1.29381 1.28653 4.95293 1.17597
5409.85 1.3043 1.29496 4.91197 1.17611
5410.3 1.31458 1.30418 4.88828 1.17626
5410.74 1.32416 1.31395 4.86464 1.1764
5411.18 1.33274 1.32407 4.83999 1.17655
5411.63 1.34056 1.33431 4.81501 1.17669
5412.07 1.34852 1.34451 4.78161 1.17684
5412.51 1.35946 1.35458 4.74808 1.17698
5412.95 1.37536 1.3645 4.69589 1.17713
5413.4 1.39346 1.37426 4.64454 1.17728
5413.84 1.4101 1.38374 4.60494 1.17742
5414.28 1.42221 1.39273 4.56592 1.17757
5414.73 1.42766 1.4009 4.55956 1.17772
5415.17 1.42758 1.40803 4.55455 1.17786
5415.61 1.42408 1.41403 4.56987 1.17801
5416.05 1.41939 1.419 4.58685 1.17816
5416.5 1.41566 1.42312 4.60169 1.17831
5416.94 1.41452 1.42652 4.61635 1.17846
5417.38 1.41698 1.42922 4.61222 1.17861
5417.83 1.42158 1.43115 4.6052 1.17876
5418.27 1.42611 1.43222 4.58998 1.17891
5418.71 1.42927 1.43243 4.57324 1.17905
5419.16 1.43024 1.4318 4.56294 1.1792
5419.6 1.42861 1.43039 4.5542 1.17935
5420.04 1.42441 1.42824 4.57144 1.1795
5420.49 1.41935 1.42548 4.59635 1.17965
5420.93 1.41572 1.42234 4.60649 1.1798
5421.37 1.41379 1.41921 4.61158 1.17995
5421.82 1.41272 1.4165 4.61357 1.1801
5422.26 1.41149 1.4145 4.61433 1.18025
5422.71 1.40911 1.41316 4.62289 1.1804
5423.15 1.40669 1.4122 4.635 1.18056
5423.59 1.40643 1.41126 4.63361 1.18071
5424.04 1.40846 1.41017 4.62528 1.18086
5424.48 1.41154 1.40903 4.61356 1.18101
5424.92 1.41403 1.40805 4.59991 1.18116
5425.37 1.4142 1.40731 4.59585 1.18131
5425.81 1.41225 1.40653 4.59802 1.18146
5426.26 1.40977 1.40523 4.60079 1.18161
5426.7 1.40743 1.40297 4.604 1.18176
5427.14 1.40504 1.39959 4.60848 1.1819
5427.59 1.40219 1.39528 4.61401 1.18205
5428.03 1.39825 1.39037 4.62513 1.1822
5428.48 1.39253 1.38507 4.64139 1.18235
5428.92 1.3843 1.37944 4.66133 1.1825
5429.36 1.37393 1.37342 4.68507 1.18265
5429.81 1.3629 1.36713 4.70926 1.1828
5430.25 1.35315 1.3609 4.73396 1.18295
5430.7 1.34703 1.3551 4.74448 1.18309
5431.14 1.34459 1.34995 4.73711 1.18324
5431.59 1.34318 1.34544 4.73294 1.18339
5432.03 1.34117 1.34148 4.73319 1.18354
5432.48 1.33839 1.33805 4.73545 1.18368
5432.92 1.33533 1.33539 4.74081 1.18383
5433.36 1.33318 1.3339 4.74501 1.18397
5433.81 1.33291 1.33395 4.74721 1.18412
5434.25 1.33507 1.33573 4.7456 1.18426
5434.7 1.33977 1.33922 4.73677 1.18441
5435.14 1.34645 1.34428 4.72512 1.18455
5435.59 1.35412 1.35077 4.70756 1.1847
5436.03 1.36117 1.35856 4.69236 1.18484
5436.48 1.36726 1.36756 4.68259 1.18498
5436.92 1.37427 1.37763 4.66918 1.18513
5437.37 1.38365 1.38858 4.64617 1.18527
5437.81 1.39562 1.40013 4.62013 1.18541
5438.26 1.40975 1.41198 4.5848 1.18555
5438.7 1.42458 1.42378 4.55083 1.18569
5439.15 1.43858 1.43513 4.52046 1.18583
5439.59 1.45028 1.44559 4.49189 1.18597
5440.04 1.45879 1.45469 4.46936 1.18611
5440.48 1.46441 1.46202 4.44851 1.18624
5440.93 1.46847 1.46724 4.43451 1.18638
5441.37 1.47439 1.47012 4.42067 1.18652
5441.82 1.48328 1.47059 4.40741 1.18665
5442.26 1.48995 1.46865 4.39775 1.18679
5442.71 1.48946 1.46436 4.40987 1.18692
5443.15 1.48005 1.45788 4.42624 1.18706
5443.6 1.4624 1.44942 4.47398 1.18719
5444.04 1.44236 1.43938 4.52134 1.18732
5444.49 1.42521 1.42829 4.55873 1.18745
5444.93 1.41157 1.41681 4.59598 1.18758
5445.38 1.40116 1.40561 4.62646 1.18771
5445.83 1.39352 1.39526 4.65662 1.18784
5446.27 1.38807 1.38622 4.67676 1.18797
5446.72 1.38401 1.3789 4.69648 1.1881
5447.16 1.38067 1.37365 4.70218 1.18823
5447.61 1.37791 1.37072 4.70779 1.18836
5448.05 1.37576 1.37012 4.70806 1.18848
5448.5 1.37431 1.37154 4.70834 1.18861
5448.95 1.37375 1.37442 4.70271 1.18873
5449.39 1.37442 1.37802 4.6971 1.18886
5449.84 1.37655 1.38176 4.67968 1.18898
5450.28 1.37956 1.38523 4.66214 1.18911
5450.73 1.38265 1.38823 4.64349 1.18923
5451.18 1.38505 1.39061 4.62491 1.18935
5451.62 1.38603 1.39211 4.61044 1.18947
5452.07 1.38513 1.39241 4.59627 1.18959
5452.51 1.38214 1.39126 4.60543 1.18971
5452.96 1.3777 1.38868 4.61648 1.18983
5453.41 1.37274 1.38497 4.63576 1.18995
5453.85 1.36822 1.38071 4.65599 1.19007
5454.3 1.36486 1.3765 4.67857 1.19019
5454.74 1.36193 1.37284 4.7016 1.19031
5455.19 1.35852 1.37011 4.71402 1.19043
5455.64 1.35535 1.36857 4.72496 1.19054
5456.08 1.35375 1.36837 4.72794 1.19066
5456.53 1.35517 1.36953 4.7296 1.19077
5456.98 1.3606 1.37189 4.71527 1.19089
5457.42 1.36816 1.37516 4.69805 1.191
5457.87 1.37507 1.37899 4.68038 1.19112
5458.32 1.38046 1.38308 4.66269 1.19123
5458.76 1.38437 1.38721 4.64735 1.19135
5459.21 1.38748 1.39115 4.6326 1.19146
5459.66 1.39054 1.39459 4.63531 1.19157
5460.1 1.39234 1.39722 4.64248 1.19168
5460.55 1.39111 1.39881 4.50245 1.19179
5461.0 1.3874 1.39934 4.3306 1.1919
5461.44 1.38302 1.39901 4.05331 1.19201
5461.89 1.38093 1.39811 3.77099 1.19212
5462.34 1.38414 1.39694 3.20571 1.19223
5462.78 1.39141 1.39569 2.68426 1.19234
5463.23 1.39941 1.39449 2.32496 1.19245
5463.68 1.40603 1.39354 2.04631 1.19256
5464.12 1.40987 1.3931 1.84226 1.19267
5464.57 1.41009 1.39344 1.67628 1.19277
5465.02 1.40644 1.39469 1.59795 1.19288
5465.47 1.40182 1.39673 1.55092 1.19299
5465.91 1.40061 1.39926 1.54203 1.19309
5466.36 1.40405 1.40189 1.54893 1.1932
5466.81 1.41114 1.40432 1.5956 1.1933
5467.26 1.41691 1.40638 1.66379 1.19341
5467.7 1.41473 1.408 1.84262 1.19351
5468.15 1.40649 1.40922 2.11592 1.19362
5468.6 1.3992 1.41002 2.41416 1.19372
5469.04 1.3967 1.41035 2.75526 1.19382
5469.49 1.40024 1.41004 3.08038 1.19393
5469.94 1.40586 1.40889 3.40916 1.19403
5470.39 1.40656 1.40673 3.67135 1.19413
5470.83 1.40162 1.40354 3.89128 1.19423
5471.28 1.39458 1.39949 4.08572 1.19433
5471.73 1.38807 1.39481 4.26656 1.19443
5472.18 1.38383 1.38972 4.40283 1.19453
5472.63 1.38098 1.38426 4.50981 1.19464
5473.07 1.37688 1.37837 4.58267 1.19474
5473.52 1.37078 1.37207 4.63267 1.19483
5473.97 1.36343 1.36553 4.67152 1.19493
5474.42 1.35562 1.35915 4.70283 1.19503
5474.86 1.34824 1.35334 4.72445 1.19513
5475.31 1.342 1.3484 4.73925 1.19523
5475.76 1.33748 1.3444 4.74632 1.19533
5476.21 1.33494 1.34125 4.7478 1.19543
5476.66 1.33433 1.33889 4.7462 1.19552
5477.1 1.33545 1.33735 4.74231 1.19562
5477.55 1.3379 1.33678 4.73588 1.19572
5478.0 1.34072 1.33729 4.72752 1.19582
5478.45 1.34253 1.33886 4.72856 1.19591
5478.9 1.34329 1.34133 4.7371 1.19601
5479.35 1.34406 1.34443 4.74688 1.19611
5479.79 1.34615 1.34794 4.7577 1.1962
5480.24 1.35094 1.35175 4.75635 1.1963
5480.69 1.35796 1.35583 4.74471 1.19639
5481.14 1.36514 1.36028 4.73115 1.19649
5481.59 1.37134 1.36518 4.71595 1.19658
5482.04 1.37634 1.37053 4.70017 1.19668
5482.49 1.38029 1.37607 4.6839 1.19677
5482.93 1.38368 1.38073 4.67107 1.19687
5483.38 1.38706 1.38449 4.66137 1.19696
5483.83 1.39104 1.38831 4.64827 1.19705
5484.28 1.39577 1.39204 4.63201 1.19715
5484.73 1.40093 1.39536 4.61376 1.19724
5485.18 1.40585 1.3983 4.59362 1.19733
5485.63 1.40958 1.40099 4.58268 1.19743
5486.07 1.41188 1.40331 4.58073 1.19752
5486.52 1.41323 1.40488 4.58048 1.19761
5486.97 1.41398 1.40526 4.58193 1.19771
5487.42 1.41435 1.40421 4.58503 1.1978
5487.87 1.41447 1.40142 4.58981 1.19789
5488.32 1.41437 1.39667 0.0 1.19798
5488.77 1.41403 1.39629 0.0 1.19808
5489.22 1.41333 1.3969 0.0 1.19817
5489.67 1.41227 1.39795 0.0 1.19826
5490.12 1.41093 1.39911 0.0 1.19835
5490.57 1.40953 1.39994 0.0 1.19844
5491.01 1.40846 1.39942 0.0 1.19853
5491.46 1.40796 1.39606 0.0 1.19863
5491.91 1.4082 1.39096 0.0 1.19872
5492.36 1.40918 1.38708 0.0 1.19881
5492.81 1.41076 1.38518 0.0 1.1989
5493.26 1.41251 1.38415 0.0 1.19899
5493.71 1.41369 1.38277 0.0 1.19908
5494.16 1.414 1.37952 0.0 1.19917
5494.61 1.4137 1.37167 0.0 1.19926
5495.06 1.4131 1.35693 0.0 1.19935
5495.51 1.41259 1.33664 0.0 1.19945
5495.96 1.41288 1.31376 0.0 1.19954
5496.41 1.41498 1.28885 0.0 1.19963
5496.86 1.4184 1.25825 0.0 1.19972
5497.31 1.42104 1.21641 0.0 1.19981
5497.76 1.42077 1.16094 0.0 1.1999
5498.21 1.41573 1.09479 0.0 1.19999
5498.66 1.40763 1.02324 0.0 1.20008
5499.11 1.40201 0.949406 0.0 1.20017
5499.56 1.40062 0.872268 0.0 1.20026
