"Wavelength (A)" Specta "Best Fitting Model" "Non-parm Extinction Curve" "Non-param Adjusted Continuum"
4051.13 0.592107 0.277411 0.0 0.88704
4051.46 0.593359 0.301777 0.0 0.886402
4051.79 0.594171 0.32747 0.0 0.885764
4052.13 0.594434 0.352665 0.0 0.885126
4052.46 0.594244 0.375456 0.0 0.884488
4052.79 0.593722 0.395305 0.0 0.883851
4053.12 0.593128 0.413358 0.0 0.883214
4053.45 0.592835 0.431401 0.0 0.882577
4053.78 0.593085 0.450295 0.0 0.881941
4054.12 0.593281 0.469248 0.0 0.881305
4054.45 0.592505 0.486638 0.0 0.88067
4054.78 0.590292 0.501445 0.0 0.880036
4055.11 0.587357 0.513816 0.0 0.879402
4055.44 0.58459 0.52447 0.0 0.878769
4055.77 0.582321 0.53389 0.0 0.878137
4056.11 0.580205 0.542061 0.0 0.877506
4056.44 0.577889 0.548767 0.0 0.876876
4056.77 0.575343 0.553965 0.0 0.876247
4057.1 0.57272 0.557891 0.0 0.875619
4057.43 0.570176 0.560885 0.0 0.874992
4057.77 0.567881 0.563201 0.0 0.874367
4058.1 0.566007 0.564936 0.0 0.873743
4058.43 0.564634 0.566104 0.0 0.87312
4058.76 0.563688 0.566715 0.0 0.872498
4059.09 0.563077 0.566778 0.0 0.871879
4059.43 0.562701 0.566287 13.9522 0.87126
4059.76 0.562451 0.565536 13.9411 0.870644
4060.09 0.562213 0.564387 13.9518 0.870029
4060.42 0.561851 0.562787 13.9657 0.869416
4060.76 0.561219 0.560817 13.9864 0.868805
4061.09 0.560177 0.558646 14.0414 0.868196
4061.42 0.558608 0.556468 14.0967 0.867588
4061.75 0.556412 0.554468 14.1557 0.866983
4062.08 0.554007 0.552784 14.219 0.86638
4062.42 0.552388 0.551474 14.2826 0.865779
4062.75 0.55243 0.55048 14.2687 0.86518
4063.08 0.553713 0.549669 14.2288 0.864584
4063.41 0.555145 0.54901 14.1904 0.86399
4063.75 0.555899 0.548686 14.1842 0.863398
4064.08 0.556106 0.5494 14.178 0.862809
4064.41 0.556106 0.554257 14.1727 0.862223
4064.74 0.556161 0.554051 14.1691 0.861639
4065.08 0.556408 0.554188 14.1654 0.861058
4065.41 0.556963 0.554658 14.1553 0.86048
4065.74 0.557773 0.555441 14.1412 0.859904
4066.07 0.558664 0.556505 14.1272 0.859332
4066.41 0.559485 0.5578 14.1105 0.858762
4066.74 0.560226 0.559269 14.0936 0.858196
4067.07 0.560918 0.560861 14.0771 0.857632
4067.41 0.561631 0.56253 14.0616 0.857072
4067.74 0.562509 0.564229 14.0462 0.856515
4068.07 0.563713 0.565908 14.025 0.855961
4068.4 0.565462 0.567519 13.9982 0.855411
4068.74 0.568041 0.569024 13.9714 0.854864
4069.07 0.571576 0.570392 13.921 0.854321
4069.4 0.575054 0.571602 13.8653 0.853781
4069.74 0.576964 0.572641 13.8196 0.853245
4070.07 0.576438 0.573517 13.8548 0.852712
4070.4 0.574493 0.574234 13.8902 0.852184
4070.73 0.572474 0.574796 13.9159 0.851659
4071.07 0.57119 0.575208 13.927 0.851138
4071.4 0.570761 0.575483 13.9383 0.850621
4071.73 0.571234 0.575628 13.9299 0.850108
4072.07 0.572332 0.575639 13.9133 0.849599
4072.4 0.573593 0.575508 13.8967 0.849094
4072.73 0.574571 0.575206 13.9004 0.848594
4073.07 0.574901 0.574694 13.9041 0.848098
4073.4 0.574243 0.57394 13.9203 0.847606
4073.73 0.57256 0.572939 13.9657 0.847119
4074.07 0.570338 0.571725 14.0114 0.846636
4074.4 0.568112 0.570388 14.0585 0.846158
4074.73 0.566456 0.569057 14.1065 0.845684
4075.07 0.565966 0.567871 14.1548 0.845215
4075.4 0.567043 0.566957 14.1477 0.844751
4075.73 0.569 0.566406 14.1345 0.844292
4076.07 0.570787 0.566263 14.1225 0.843837
4076.4 0.571753 0.566541 14.1157 0.843388
4076.73 0.572142 0.567242 14.1088 0.842943
4077.07 0.57232 0.568359 14.0938 0.842504
4077.4 0.572753 0.569867 14.0709 0.84207
4077.73 0.574002 0.57174 14.048 0.841641
4078.07 0.576511 0.573945 14.0012 0.841217
4078.4 0.57981 0.576413 13.9488 0.840799
4078.74 0.583029 0.579066 13.8986 0.840386
4079.07 0.585543 0.581845 13.864 0.839979
4079.4 0.587444 0.584713 13.8296 0.839577
4079.74 0.58896 0.587647 13.7916 0.839181
4080.07 0.59041 0.590652 13.7484 0.83879
4080.4 0.59223 0.59375 13.7054 0.838405
4080.74 0.594827 0.596952 13.6423 0.838027
4081.07 0.598217 0.600233 13.5716 0.837653
4081.41 0.602197 0.603545 13.5013 0.837286
4081.74 0.606521 0.606818 13.4251 0.836925
4082.07 0.610788 0.609979 13.3495 0.83657
4082.41 0.614564 0.612972 13.287 0.836222
4082.74 0.617522 0.615783 13.2505 0.835879
4083.08 0.619507 0.618431 13.2142 0.835543
4083.41 0.62044 0.620964 13.2027 0.835213
4083.74 0.621023 0.623448 13.2056 0.834889
4084.08 0.622516 0.625929 13.2085 0.834572
4084.41 0.625847 0.628429 13.1243 0.834262
4084.75 0.630284 0.630951 13.0351 0.833958
4085.08 0.634596 0.633476 12.9568 0.83366
4085.42 0.63801 0.635952 12.9102 0.83337
4085.75 0.640661 0.638331 12.8639 0.833086
4086.08 0.642784 0.64059 12.8315 0.83281
4086.42 0.644511 0.642703 12.8104 0.83254
4086.75 0.645884 0.64465 12.7893 0.832277
4087.09 0.646931 0.646431 12.7739 0.832021
4087.42 0.647638 0.648056 12.7596 0.831773
4087.76 0.647974 0.649507 12.746 0.831531
4088.09 0.647946 0.650757 12.736 0.831297
4088.42 0.647659 0.651776 12.726 0.831071
4088.76 0.647228 0.652531 12.7227 0.830851
4089.09 0.646718 0.652992 12.7267 0.830639
4089.43 0.646145 0.653148 12.7307 0.830435
4089.76 0.645506 0.653007 12.7495 0.830238
4090.1 0.644727 0.652581 12.7723 0.830049
4090.43 0.643692 0.651877 12.7947 0.829868
4090.77 0.642278 0.650878 12.8117 0.829695
4091.1 0.640326 0.649545 12.8288 0.829529
4091.44 0.637679 0.647826 12.8721 0.829371
4091.77 0.634481 0.645665 12.9539 0.829222
4092.11 0.631254 0.643024 13.0365 0.82908
4092.44 0.628479 0.639909 13.1092 0.828947
4092.78 0.626 0.636361 13.1783 0.828822
4093.11 0.623304 0.63244 13.2486 0.828705
4093.45 0.619958 0.628206 13.3411 0.828596
4093.78 0.615841 0.623695 13.4346 0.828496
4094.12 0.610904 0.618909 13.5366 0.828404
4094.45 0.605233 0.613834 13.6541 0.828321
4094.79 0.599116 0.608466 13.7732 0.828246
4095.12 0.592851 0.602836 13.8887 0.828179
4095.46 0.586663 0.59703 14.0029 0.828121
4095.79 0.580729 0.591157 14.1185 0.828071
4096.13 0.575228 0.585317 14.1955 0.828029
4096.46 0.57036 0.579578 14.2721 0.827994
4096.8 0.566329 0.57396 14.3371 0.827968
4097.13 0.563327 0.568442 14.372 0.827949
4097.47 0.561525 0.563 14.4072 0.827938
4097.8 0.561006 0.557637 14.4564 0.827934
4098.14 0.560558 0.552398 14.5152 0.827937
4098.47 0.557977 0.547364 14.5743 0.827948
4098.81 0.551678 0.542636 14.7728 0.827966
4099.14 0.543357 0.538315 14.9881 0.827992
4099.48 0.535755 0.534475 15.1742 0.828024
4099.81 0.530629 0.531147 15.2514 0.828063
4100.15 0.527737 0.528328 15.3292 0.828109
4100.48 0.526594 0.525996 15.3716 0.828161
4100.82 0.526654 0.524136 15.3849 0.82822
4101.16 0.527325 0.522746 15.3982 0.828286
4101.49 0.528077 0.521851 15.3921 0.828358
4101.83 0.528786 0.521495 15.383 0.828436
4102.16 0.529474 0.521707 15.3712 0.828521
4102.5 0.530201 0.522499 15.3477 0.828611
4102.83 0.531098 0.523852 15.3243 0.828708
4103.17 0.532313 0.525715 15.29 0.82881
4103.51 0.533967 0.528021 15.2454 0.828918
4103.84 0.536163 0.53071 15.2009 0.829032
4104.18 0.538986 0.533733 15.1346 0.829151
4104.51 0.542392 0.537054 15.0641 0.829276
4104.85 0.546289 0.540646 14.9913 0.829406
4105.18 0.55056 0.544484 14.9024 0.829542
4105.52 0.555039 0.548534 14.8142 0.829682
4105.86 0.559551 0.552731 14.7271 0.829828
4106.19 0.56395 0.556973 14.6411 0.829979
4106.53 0.568127 0.561148 14.5557 0.830134
4106.86 0.571979 0.56515 14.4779 0.830294
4107.2 0.575443 0.568881 14.4025 0.830459
4107.54 0.57847 0.572281 14.3305 0.830629
4107.87 0.581067 0.575341 14.2818 0.830803
4108.21 0.583379 0.578099 14.2333 0.830981
4108.54 0.585581 0.580603 14.1867 0.831163
4108.88 0.587795 0.58291 14.1424 0.83135
4109.22 0.590087 0.585079 14.0982 0.831541
4109.55 0.5925 0.587164 14.0518 0.831735
4109.89 0.594943 0.589193 14.0049 0.831934
4110.23 0.597254 0.591177 13.9597 0.832136
4110.56 0.599285 0.593112 13.9328 0.832342
4110.9 0.600938 0.594977 13.906 0.832551
4111.23 0.602124 0.596745 13.8934 0.832764
4111.57 0.602766 0.598395 13.9018 0.83298
4111.91 0.602804 0.599925 13.9102 0.833199
4112.24 0.602257 0.601353 13.9189 0.833422
4112.58 0.601912 0.602715 13.9276 0.833648
4112.92 0.602978 0.604053 13.9321 0.833876
4113.25 0.60611 0.605408 13.8569 0.834107
4113.59 0.610038 0.606808 13.7824 0.834341
4113.93 0.6131 0.608249 13.7301 0.834578
4114.26 0.614623 0.609706 13.7139 0.834817
4114.6 0.615299 0.611144 13.6978 0.835059
4114.94 0.615879 0.612525 13.6926 0.835303
4115.27 0.616667 0.613809 13.6921 0.835549
4115.61 0.617702 0.61497 13.6917 0.835797
4115.95 0.618911 0.615997 13.6967 0.836047
4116.28 0.619823 0.616874 13.7017 0.8363
4116.62 0.619882 0.617588 13.7119 0.836554
4116.96 0.618956 0.618135 13.7314 0.836809
4117.29 0.617528 0.618516 13.7509 0.837067
4117.63 0.616113 0.618738 13.7694 0.837326
4117.97 0.615058 0.618813 13.7875 0.837586
4118.3 0.614606 0.618763 13.8054 0.837847
4118.64 0.614937 0.618616 13.8012 0.83811
4118.98 0.615999 0.618405 13.797 0.838374
4119.32 0.617674 0.61817 13.801 0.838639
4119.65 0.619256 0.617949 13.821 0.838905
4119.99 0.61915 0.617772 13.8409 0.839171
4120.33 0.615919 0.617653 13.8982 0.839439
4120.66 0.610786 0.617598 13.9742 0.839706
4121.0 0.606658 0.617598 14.0504 0.839975
4121.34 0.605864 0.617647 14.0089 0.840244
4121.68 0.608321 0.61774 13.9676 0.840513
4122.01 0.613342 0.617884 13.9141 0.840782
4122.35 0.619713 0.618083 13.8366 0.841051
4122.69 0.625407 0.618343 13.7598 0.841321
4123.02 0.628456 0.618662 13.7379 0.84159
4123.36 0.628393 0.619027 13.7433 0.841859
4123.7 0.625724 0.619408 13.7488 0.842128
4124.04 0.621162 0.61977 13.841 0.842396
4124.37 0.61619 0.620074 13.9343 0.842664
4124.71 0.612467 0.620278 14.0076 0.842931
4125.05 0.610758 0.620343 14.0389 0.843197
4125.39 0.610424 0.620237 14.0704 0.843463
4125.72 0.61073 0.619938 14.074 0.843727
4126.06 0.611233 0.619427 14.0634 0.843991
4126.4 0.61168 0.618683 14.0528 0.844254
4126.74 0.611811 0.617687 14.074 0.844515
4127.07 0.611338 0.616418 14.0953 0.844775
4127.41 0.609969 0.614853 14.131 0.845033
4127.75 0.607672 0.612973 14.1959 0.84529
4128.09 0.604813 0.61079 14.2612 0.845546
4128.43 0.601785 0.608341 14.3327 0.845799
4128.76 0.59885 0.605687 14.4074 0.846051
4129.1 0.596188 0.602903 14.4827 0.846301
4129.44 0.593971 0.600078 14.5377 0.846549
4129.78 0.592342 0.597287 14.5931 0.846795
4130.11 0.591436 0.594589 14.6295 0.847038
4130.45 0.591358 0.592035 14.6285 0.847279
4130.79 0.592166 0.589672 14.6276 0.847518
4131.13 0.593874 0.587535 14.5775 0.847754
4131.47 0.596092 0.585671 14.5044 0.847987
4131.8 0.598171 0.584142 14.4327 0.848218
4132.14 0.599569 0.583002 14.4213 0.848446
4132.48 0.60017 0.582294 14.41 0.848671
4132.82 0.599965 0.582051 14.412 0.848893
4133.16 0.599071 0.582271 14.4388 0.849111
4133.5 0.597795 0.58291 14.4657 0.849327
4133.83 0.596453 0.583908 14.5014 0.849539
4134.17 0.595302 0.585217 14.5412 0.849747
4134.51 0.594566 0.586817 14.5804 0.849953
4134.85 0.594446 0.588708 14.5991 0.850154
4135.19 0.59508 0.590908 14.6177 0.850352
4135.53 0.596582 0.593408 14.6204 0.850545
4135.86 0.598834 0.59615 14.5958 0.850735
4136.2 0.601389 0.599023 14.5712 0.850921
4136.54 0.603795 0.601885 14.5292 0.851102
4136.88 0.605808 0.604606 14.4803 0.85128
4137.22 0.607304 0.607094 14.432 0.851453
4137.56 0.608299 0.609296 14.3912 0.851621
4137.89 0.609286 0.611166 14.3505 0.851785
4138.23 0.610845 0.612647 14.31 0.851945
4138.57 0.612777 0.613664 14.2695 0.8521
4138.91 0.613851 0.614129 14.2292 0.852251
4139.25 0.612931 0.613961 14.255 0.852397
4139.59 0.610421 0.613129 14.3049 0.85254
4139.93 0.60755 0.611671 14.3559 0.852678
4140.26 0.605201 0.609686 14.4161 0.852812
4140.6 0.603125 0.607304 14.4767 0.852942
4140.94 0.600856 0.604658 14.5419 0.853069
4141.28 0.598212 0.601862 14.6133 0.853191
4141.62 0.595359 0.598995 14.6852 0.85331
4141.96 0.592489 0.596103 14.7496 0.853425
4142.3 0.589846 0.593213 14.8118 0.853537
4142.64 0.5877 0.590356 14.8716 0.853645
4142.98 0.586225 0.587579 14.9076 0.853749
4143.31 0.585318 0.584947 14.9437 0.85385
4143.65 0.584823 0.582534 14.97 0.853948
4143.99 0.584517 0.580407 14.9841 0.854042
4144.33 0.584097 0.578619 14.9983 0.854134
4144.67 0.583274 0.57719 15.0209 0.854222
4145.01 0.58188 0.576129 15.0456 0.854307
4145.35 0.579801 0.575428 15.0796 0.854389
4145.69 0.57719 0.575059 15.1676 0.854468
4146.03 0.574889 0.574985 15.2565 0.854544
4146.37 0.573822 0.575184 15.2931 0.854617
4146.71 0.574113 0.575646 15.275 0.854688
4147.05 0.575074 0.57636 15.2569 0.854756
4147.38 0.576066 0.577311 15.2294 0.854821
4147.72 0.577016 0.578469 15.2001 0.854884
4148.06 0.57808 0.57978 15.1708 0.854944
4148.4 0.579322 0.581149 15.1413 0.855002
4148.74 0.580607 0.582459 15.1119 0.855058
4149.08 0.581766 0.583598 15.0936 0.855111
4149.42 0.582643 0.584489 15.085 0.855163
4149.76 0.583088 0.585094 15.0765 0.855212
4150.1 0.583007 0.585417 15.0867 0.855259
4150.44 0.582625 0.585501 15.0995 0.855304
4150.78 0.582279 0.585407 15.1098 0.855347
4151.12 0.582205 0.585186 15.1119 0.855389
4151.46 0.582428 0.584872 15.114 0.855428
4151.8 0.582933 0.58449 15.1084 0.855466
4152.14 0.583495 0.584066 15.0974 0.855502
4152.48 0.583718 0.583629 15.0864 0.855537
4152.82 0.583302 0.583216 15.1252 0.85557
4153.16 0.58243 0.582858 15.1676 0.855602
4153.5 0.581435 0.582579 15.1963 0.855632
4153.84 0.580611 0.5824 15.1901 0.855661
4154.18 0.580181 0.582336 15.1838 0.855689
4154.52 0.580349 0.582418 15.1806 0.855716
4154.86 0.581155 0.582699 15.1791 0.855742
4155.2 0.582522 0.583244 15.1777 0.855766
4155.54 0.584366 0.584095 15.1588 0.85579
4155.88 0.586576 0.585273 15.1398 0.855813
4156.22 0.589037 0.586768 15.1104 0.855835
4156.56 0.59167 0.588552 15.0612 0.855856
4156.9 0.594448 0.590602 15.0122 0.855877
4157.24 0.597348 0.592915 14.9604 0.855897
4157.58 0.600312 0.595495 14.9077 0.855916
4157.92 0.603264 0.598341 14.8549 0.855935
4158.26 0.606139 0.601439 14.7982 0.855954
4158.6 0.608911 0.604746 14.7419 0.855972
4158.94 0.611564 0.608189 14.6861 0.85599
4159.28 0.614059 0.61169 14.6311 0.856008
4159.62 0.616332 0.615171 14.5764 0.856026
4159.96 0.618351 0.618548 14.5217 0.856043
4160.3 0.620373 0.621743 14.4672 0.856061
4160.64 0.622803 0.624694 14.4132 0.856079
4160.98 0.62575 0.627357 14.3606 0.856096
4161.32 0.628485 0.629706 14.3083 0.856115
4161.66 0.630156 0.631733 14.2727 0.856133
4162.0 0.630522 0.633446 14.2553 0.856152
4162.34 0.629999 0.63485 14.2379 0.856171
4162.68 0.629058 0.635936 14.2406 0.85619
4163.02 0.628328 0.636683 14.2475 0.856211
4163.36 0.628501 0.637076 14.2544 0.856232
4163.7 0.629639 0.637115 14.2609 0.856253
4164.05 0.630338 0.636806 14.2674 0.856275
4164.39 0.629076 0.636184 14.3204 0.856299
4164.73 0.625911 0.635308 14.4127 0.856323
4165.07 0.622308 0.63423 14.5059 0.856348
4165.41 0.619528 0.632983 14.5536 0.856374
4165.75 0.617487 0.631572 14.5966 0.856401
4166.09 0.615653 0.629986 14.6406 0.856429
4166.43 0.613703 0.628199 14.687 0.856459
4166.77 0.6117 0.626196 14.7336 0.85649
4167.11 0.60975 0.623987 14.7787 0.856522
4167.45 0.607933 0.621607 14.8228 0.856556
4167.79 0.60631 0.61912 14.8671 0.856591
4168.14 0.604916 0.616591 14.9043 0.856628
4168.48 0.60368 0.614055 14.9416 0.856667
4168.82 0.602498 0.611519 14.9804 0.856707
4169.16 0.601257 0.608971 15.022 0.856749
4169.5 0.599822 0.606398 15.0638 0.856793
4169.84 0.598067 0.603797 15.1157 0.856839
4170.18 0.595985 0.601188 15.172 0.856887
4170.52 0.59364 0.598612 15.2274 0.856937
4170.86 0.591174 0.596105 15.2649 0.856989
4171.21 0.588991 0.593682 15.3026 0.857043
4171.55 0.587537 0.591331 15.3462 0.8571
4171.89 0.586849 0.589041 15.3978 0.857158
4172.23 0.586477 0.586823 15.4497 0.85722
4172.57 0.585987 0.58471 15.4647 0.857284
4172.91 0.585314 0.582748 15.4702 0.85735
4173.25 0.584555 0.580984 15.4786 0.857419
4173.6 0.583792 0.579455 15.5022 0.857491
4173.94 0.583062 0.578169 15.5258 0.857565
4174.28 0.582396 0.577123 15.5507 0.857642
4174.62 0.581796 0.57631 15.5766 0.857723
4174.96 0.581236 0.575727 15.6026 0.857806
4175.3 0.580701 0.575382 15.6134 0.857892
4175.64 0.580229 0.575277 15.6223 0.857981
4175.99 0.579876 0.575403 15.6265 0.858074
4176.33 0.579707 0.575734 15.617 0.858169
4176.67 0.579798 0.576249 15.6075 0.858268
4177.01 0.580229 0.576917 15.584 0.858371
4177.35 0.581092 0.577719 15.552 0.858476
4177.7 0.58249 0.578658 15.5201 0.858586
4178.04 0.584415 0.579755 15.4614 0.858699
4178.38 0.586396 0.581022 15.4027 0.858815
4178.72 0.587849 0.582449 15.3581 0.858935
4179.06 0.588681 0.584006 15.3386 0.859059
4179.4 0.589516 0.58564 15.3192 0.859187
4179.75 0.590977 0.587277 15.288 0.859319
4180.09 0.593121 0.588864 15.2523 0.859455
4180.43 0.595686 0.590388 15.2159 0.859595
4180.77 0.598373 0.591863 15.1719 0.859739
4181.11 0.600782 0.593332 15.128 0.859887
4181.46 0.602504 0.594847 15.0948 0.86004
4181.8 0.603444 0.596444 15.0739 0.860196
4182.14 0.603856 0.598109 15.053 0.860357
4182.48 0.604018 0.599788 15.0598 0.860522
4182.83 0.604235 0.601402 15.0724 0.860692
4183.17 0.604824 0.602861 15.0788 0.860865
4183.51 0.605958 0.604084 15.0597 0.861042
4183.85 0.607493 0.605032 15.0407 0.861223
4184.19 0.609239 0.60572 15.0146 0.861408
4184.54 0.611025 0.606215 14.9833 0.861597
4184.88 0.612693 0.606622 14.952 0.86179
4185.22 0.614104 0.607045 14.9384 0.861986
4185.56 0.615227 0.607559 14.926 0.862186
4185.91 0.61606 0.608197 14.9164 0.862389
4186.25 0.616626 0.608947 14.9132 0.862596
4186.59 0.61699 0.609768 14.91 0.862807
4186.93 0.617233 0.610617 14.9021 0.86302
4187.28 0.61758 0.611472 14.892 0.863238
4187.62 0.618343 0.612331 14.8816 0.863458
4187.96 0.619745 0.613211 14.8638 0.863682
4188.3 0.6217 0.614134 14.846 0.863908
4188.65 0.624047 0.615118 14.8329 0.864138
4188.99 0.626252 0.616165 14.826 0.864371
4189.33 0.627333 0.617261 14.8192 0.864607
4189.68 0.626488 0.618381 14.838 0.864846
4190.02 0.624416 0.619492 14.863 0.865088
4190.36 0.622481 0.620558 14.8841 0.865332
4190.7 0.621621 0.621539 14.8867 0.86558
4191.05 0.621756 0.62239 14.8892 0.865829
4191.39 0.62265 0.623081 14.882 0.866082
4191.73 0.623938 0.623592 14.8668 0.866337
4192.08 0.625135 0.623909 14.8517 0.866595
4192.42 0.625802 0.62402 14.8646 0.866855
4192.76 0.625717 0.6239 14.8796 0.867118
4193.1 0.624734 0.623504 14.9059 0.867383
4193.45 0.622858 0.622771 14.9578 0.86765
4193.79 0.620355 0.621642 15.0101 0.867919
4194.13 0.617513 0.62008 15.0723 0.868191
4194.48 0.614584 0.618099 15.1393 0.868464
4194.82 0.611795 0.615765 15.2059 0.86874
4195.16 0.609289 0.61318 15.2585 0.869018
4195.51 0.606914 0.610462 15.3114 0.869298
4195.85 0.604473 0.607726 15.3619 0.869579
4196.19 0.602154 0.60505 15.4091 0.869862
4196.54 0.600608 0.602468 15.4566 0.870148
4196.88 0.600349 0.599983 15.4758 0.870434
4197.22 0.600778 0.597575 15.4886 0.870723
4197.57 0.600819 0.59522 15.5108 0.871013
4197.91 0.599779 0.592913 15.5722 0.871304
4198.25 0.597827 0.59068 15.6339 0.871597
4198.6 0.595273 0.58858 15.6897 0.871892
4198.94 0.59274 0.586707 15.741 0.872188
4199.28 0.591112 0.58517 15.7926 0.872485
4199.63 0.591116 0.584064 15.7721 0.872783
4199.97 0.592718 0.58347 15.7484 0.873082
4200.32 0.595663 0.583447 15.7051 0.873383
4200.66 0.599375 0.584018 15.6235 0.873685
4201.0 0.60279 0.585185 15.5426 0.873987
4201.35 0.604909 0.586954 15.5172 0.874291
4201.69 0.605768 0.589315 15.5134 0.874595
4202.03 0.605993 0.592234 15.5132 0.874901
4202.38 0.606152 0.595665 15.5457 0.875207
4202.72 0.606634 0.599539 15.5782 0.875513
4203.07 0.607792 0.603754 15.5756 0.875821
4203.41 0.60985 0.608195 15.5353 0.876129
4203.75 0.612901 0.612767 15.4952 0.876437
4204.1 0.616947 0.61739 15.4104 0.876746
4204.44 0.621476 0.622015 15.3194 0.877056
4204.79 0.625785 0.626638 15.2273 0.877365
4205.13 0.629522 0.63127 15.13 0.877675
4205.47 0.633016 0.635903 15.0336 0.877986
4205.82 0.636666 0.6405 14.9364 0.878296
4206.16 0.640766 0.644997 14.839 0.878607
4206.51 0.645533 0.649293 14.7427 0.878917
4206.85 0.650876 0.653286 14.6498 0.879228
4207.19 0.655535 0.656905 14.5578 0.879539
4207.54 0.658003 0.660119 14.5105 0.879849
4207.88 0.657966 0.662917 14.5285 0.880159
4208.23 0.656651 0.665306 14.5466 0.880469
4208.57 0.655266 0.667296 14.5631 0.880779
4208.92 0.654114 0.668886 14.5793 0.881089
4209.26 0.653076 0.670073 14.595 0.881398
4209.6 0.652168 0.670868 14.6082 0.881706
4209.95 0.65173 0.671292 14.6214 0.882014
4210.29 0.652139 0.671372 14.6056 0.882322
4210.64 0.653567 0.671141 14.5673 0.882629
4210.98 0.656016 0.670625 14.5292 0.882935
4211.33 0.659419 0.66984 14.446 0.88324
4211.67 0.663426 0.668807 14.3611 0.883545
4212.02 0.667601 0.667575 14.2827 0.883848
4212.36 0.671376 0.66622 14.2158 0.884151
4212.71 0.673982 0.664845 14.1495 0.884453
4213.05 0.674638 0.663576 14.1694 0.884754
4213.4 0.672614 0.662529 14.2221 0.885053
4213.74 0.667205 0.661781 14.2968 0.885352
4214.08 0.658715 0.661363 14.5419 0.885649
4214.43 0.650312 0.661266 14.7933 0.885945
4214.77 0.645544 0.661452 14.9123 0.88624
4215.12 0.645139 0.661873 14.8968 0.886533
4215.46 0.647043 0.662503 14.8814 0.886824
4215.81 0.649371 0.663347 14.8352 0.887115
4216.15 0.651816 0.664423 14.7856 0.887403
4216.5 0.65461 0.665735 14.7338 0.88769
4216.84 0.65779 0.667271 14.6759 0.887976
4217.19 0.66106 0.668981 14.6183 0.888259
4217.53 0.66408 0.670768 14.5786 0.888541
4217.88 0.666432 0.672518 14.5473 0.888821
4218.22 0.667645 0.674126 14.5191 0.889099
4218.57 0.667521 0.675497 14.5323 0.889375
4218.91 0.666745 0.676535 14.5455 0.889649
4219.26 0.666151 0.677155 14.5569 0.889921
4219.6 0.665862 0.677264 14.5662 0.890191
4219.95 0.665203 0.67677 14.5755 0.890458
4220.3 0.663549 0.675585 14.6434 0.890723
4220.64 0.660805 0.673643 14.7217 0.890986
4220.99 0.657081 0.670889 14.8125 0.891247
4221.33 0.652597 0.667278 14.9401 0.891505
4221.68 0.647787 0.662784 15.0693 0.89176
4222.02 0.643071 0.657402 15.1936 0.892013
4222.37 0.638422 0.651163 15.3156 0.892263
4222.71 0.633501 0.644162 15.4393 0.892511
4223.06 0.628016 0.636562 15.567 0.892756
4223.4 0.621865 0.628578 15.6964 0.892998
4223.75 0.614998 0.620456 15.8347 0.893237
4224.1 0.607697 0.61244 15.9846 0.893474
4224.44 0.600636 0.604738 16.1366 0.893707
4224.79 0.594476 0.597509 16.2863 0.893937
4225.13 0.589605 0.590866 16.4373 0.894164
4225.48 0.586303 0.584884 16.5695 0.894389
4225.82 0.584463 0.579619 16.631 0.894609
4226.17 0.583183 0.575139 16.6928 0.894827
4226.52 0.581526 0.571539 16.7461 0.895042
4226.86 0.579456 0.568933 16.7942 0.895253
4227.21 0.577593 0.567436 16.8413 0.895461
4227.55 0.57651 0.567132 16.8313 0.895666
4227.9 0.576566 0.568044 16.8214 0.895868
4228.24 0.578057 0.570113 16.7774 0.896067
4228.59 0.581029 0.573203 16.6864 0.896263
4228.94 0.585218 0.577141 16.5962 0.896456
4229.28 0.590323 0.58177 16.4707 0.896646
4229.63 0.595962 0.58696 16.3387 0.896833
4229.97 0.601713 0.592607 16.2102 0.897017
4230.32 0.607274 0.598643 16.09 0.897198
4230.67 0.612592 0.604993 15.9711 0.897376
4231.01 0.617657 0.611518 15.8674 0.897551
4231.36 0.622581 0.618017 15.7734 0.897724
4231.71 0.627566 0.624262 15.6796 0.897894
4232.05 0.632857 0.630034 15.5475 0.898061
4232.4 0.638868 0.635167 15.417 0.898225
4232.74 0.646021 0.639599 15.2844 0.898386
4233.09 0.653831 0.643376 15.1481 0.898545
4233.44 0.660675 0.646614 15.0137 0.898701
4233.78 0.665064 0.649448 14.9644 0.898855
4234.13 0.666941 0.651974 14.9339 0.899006
4234.48 0.666856 0.65422 14.9154 0.899154
4234.82 0.665526 0.656152 14.9388 0.8993
4235.17 0.664007 0.657721 14.9622 0.899443
4235.52 0.663343 0.65891 14.9736 0.899583
4235.86 0.66379 0.659774 14.9777 0.899721
4236.21 0.665036 0.66046 14.9807 0.899857
4236.56 0.666712 0.661165 14.9423 0.89999
4236.9 0.668292 0.662076 14.9041 0.900121
4237.25 0.669229 0.663325 14.8851 0.90025
4237.6 0.669499 0.664958 14.8915 0.900376
4237.94 0.669709 0.66694 14.8979 0.900499
4238.29 0.670451 0.669193 14.8781 0.900621
4238.64 0.671984 0.671646 14.8531 0.90074
4238.98 0.674426 0.674263 14.8165 0.900857
4239.33 0.677792 0.677062 14.7431 0.900971
4239.68 0.681883 0.680111 14.6703 0.901084
4240.02 0.686459 0.683509 14.5878 0.901194
4240.37 0.691118 0.687341 14.5005 0.901302
4240.72 0.695341 0.691642 14.4148 0.901408
4241.06 0.698728 0.696379 14.3457 0.901512
4241.41 0.701291 0.701431 14.2772 0.901613
4241.76 0.70314 0.706579 14.2217 0.901713
4242.11 0.704681 0.711565 14.1815 0.901811
4242.45 0.706646 0.716142 14.1414 0.901906
4242.8 0.709575 0.720124 14.0975 0.902
4243.15 0.712721 0.723404 14.0533 0.902092
4243.49 0.714859 0.725964 14.0231 0.902182
4243.84 0.715475 0.727839 14.0305 0.902269
4244.19 0.715364 0.729068 14.038 0.902355
4244.54 0.715422 0.729664 14.058 0.90244
4244.88 0.716077 0.72962 14.084 0.902522
4245.23 0.717464 0.728928 14.1052 0.902602
4245.58 0.719461 0.727588 14.0751 0.902681
4245.92 0.721162 0.725631 14.045 0.902758
4246.27 0.721532 0.723128 14.028 0.902833
4246.62 0.720046 0.720152 14.0243 0.902907
4246.97 0.716696 0.716774 14.0205 0.902979
4247.31 0.711659 0.713058 14.096 0.903049
4247.66 0.705982 0.709068 14.1804 0.903118
4248.01 0.70099 0.70485 14.2658 0.903185
4248.36 0.697234 0.700455 14.3523 0.90325
4248.7 0.694013 0.695943 14.4396 0.903314
4249.05 0.690568 0.691381 14.5205 0.903376
4249.4 0.686678 0.686817 14.5994 0.903437
4249.75 0.68242 0.682304 14.6781 0.903497
4250.1 0.678026 0.677907 14.7518 0.903555
4250.44 0.674126 0.673704 14.8261 0.903611
4250.79 0.671387 0.669782 14.8841 0.903667
4251.14 0.669872 0.666242 14.9287 0.90372
4251.49 0.669119 0.663181 14.9734 0.903773
4251.83 0.668651 0.660661 15.0109 0.903824
4252.18 0.668007 0.658691 15.0483 0.903874
4252.53 0.666745 0.657247 15.0911 0.903923
4252.88 0.664806 0.656282 15.1429 0.90397
4253.23 0.662669 0.655741 15.1949 0.904016
4253.57 0.660854 0.655577 15.2498 0.904061
4253.92 0.659886 0.65575 15.3056 0.904105
4254.27 0.660289 0.656213 15.3388 0.904148
4254.62 0.662189 0.656915 15.2814 0.904189
4254.97 0.664821 0.657799 15.2244 0.90423
4255.31 0.667335 0.6588 15.1951 0.904269
4255.66 0.669324 0.659848 15.1828 0.904307
4256.01 0.670712 0.660884 15.1705 0.904345
4256.36 0.671496 0.661877 15.1541 0.904381
4256.71 0.671907 0.662812 15.1377 0.904417
4257.06 0.672228 0.66369 15.1207 0.904451
4257.4 0.672681 0.664545 15.1028 0.904485
4257.75 0.673418 0.665431 15.085 0.904518
4258.1 0.674562 0.666404 15.0622 0.90455
4258.45 0.676089 0.667524 15.0386 0.904581
4258.8 0.677917 0.668858 15.0099 0.904611
4259.15 0.679981 0.670464 14.9683 0.90464
4259.49 0.682245 0.672348 14.9268 0.904669
4259.84 0.684674 0.674482 14.8694 0.904697
4260.19 0.687233 0.676811 14.8055 0.904724
4260.54 0.689882 0.679285 14.7417 0.904751
4260.89 0.692618 0.681886 14.6765 0.904777
4261.24 0.695518 0.684645 14.6118 0.904802
4261.59 0.698665 0.687628 14.558 0.904827
4261.93 0.70187 0.690895 14.5137 0.904851
4262.28 0.704696 0.694454 14.4696 0.904875
4262.63 0.706794 0.698232 14.4606 0.904898
4262.98 0.708261 0.70209 14.4534 0.904921
4263.33 0.709325 0.70587 14.4433 0.904943
4263.68 0.710275 0.709405 14.4285 0.904965
4264.03 0.711488 0.712553 14.4137 0.904986
4264.38 0.713277 0.715233 14.3683 0.905007
4264.73 0.715431 0.717416 14.3153 0.905028
4265.07 0.717499 0.71907 14.2719 0.905048
4265.42 0.718974 0.720152 14.2634 0.905068
4265.77 0.719229 0.720603 14.255 0.905088
4266.12 0.717678 0.720323 14.299 0.905107
4266.47 0.71449 0.719165 14.3738 0.905126
4266.82 0.710362 0.717004 14.4509 0.905145
4267.17 0.705875 0.713786 14.558 0.905164
4267.52 0.70117 0.709528 14.6663 0.905182
4267.87 0.696295 0.704344 14.7893 0.905201
4268.22 0.691225 0.698431 14.9288 0.905219
4268.57 0.685858 0.692005 15.0702 0.905237
4268.91 0.680103 0.685244 15.2238 0.905256
4269.26 0.673957 0.678276 15.3808 0.905274
4269.61 0.667447 0.671171 15.537 0.905292
4269.96 0.660659 0.66397 15.6885 0.90531
4270.31 0.653779 0.656716 15.8423 0.905328
4270.66 0.647011 0.649475 15.9797 0.905347
4271.01 0.640648 0.642366 16.1125 0.905365
4271.36 0.635027 0.635572 16.2426 0.905383
4271.71 0.630361 0.629316 16.3535 0.905402
4272.06 0.626555 0.623824 16.4656 0.90542
4272.41 0.62348 0.619299 16.533 0.905439
4272.76 0.621159 0.615877 16.57 0.905458
4273.11 0.619734 0.613597 16.6059 0.905477
4273.46 0.619273 0.612416 16.5898 0.905496
4273.81 0.619555 0.612255 16.5737 0.905514
4274.16 0.6203 0.613044 16.5433 0.905534
4274.51 0.621386 0.614762 16.4955 0.905553
4274.86 0.62288 0.617413 16.4479 0.905572
4275.21 0.624898 0.620984 16.3786 0.905591
4275.56 0.627781 0.625429 16.3067 0.90561
4275.91 0.631948 0.630618 16.2236 0.90563
4276.26 0.637426 0.636339 16.1145 0.905649
4276.61 0.64358 0.642349 16.0065 0.905669
4276.96 0.649734 0.648427 15.8715 0.905688
4277.31 0.655392 0.654398 15.7278 0.905708
4277.66 0.660159 0.660152 15.5975 0.905728
4278.01 0.663898 0.66563 15.5291 0.905747
4278.36 0.667122 0.670783 15.4612 0.905767
4278.71 0.670426 0.675555 15.3919 0.905787
4279.06 0.67409 0.679889 15.3218 0.905807
4279.41 0.678144 0.683726 15.2522 0.905827
4279.76 0.682495 0.687016 15.1836 0.905847
4280.11 0.686616 0.68976 15.1155 0.905868
4280.46 0.68988 0.692001 15.0648 0.905888
4280.81 0.691841 0.693778 15.0356 0.905908
4281.16 0.692263 0.695105 15.0064 0.905929
4281.51 0.691055 0.695967 15.0467 0.905949
4281.86 0.688909 0.696314 15.097 0.90597
4282.21 0.686796 0.696077 15.1445 0.90599
4282.56 0.685246 0.695223 15.1851 0.906011
4282.91 0.684066 0.693791 15.2259 0.906032
4283.26 0.682993 0.691877 15.2507 0.906053
4283.61 0.681799 0.689601 15.2698 0.906074
4283.96 0.680271 0.687072 15.296 0.906095
4284.31 0.678191 0.684372 15.3564 0.906116
4284.66 0.67533 0.681529 15.4172 0.906137
4285.01 0.671484 0.678556 15.5039 0.906158
4285.36 0.66688 0.675472 15.6083 0.906179
4285.71 0.662075 0.672315 15.7133 0.9062
4286.06 0.657633 0.669108 15.8079 0.906222
4286.41 0.654116 0.665878 15.9033 0.906243
4286.76 0.652055 0.662631 15.9555 0.906265
4287.12 0.651161 0.659357 15.9582 0.906286
4287.47 0.650254 0.656061 15.9609 0.906308
4287.82 0.648397 0.652809 15.9976 0.906329
4288.17 0.646197 0.649681 16.0381 0.906351
4288.52 0.64476 0.646765 16.0623 0.906373
4288.87 0.644466 0.644146 16.0545 0.906395
4289.22 0.644574 0.641886 16.0467 0.906417
4289.57 0.644296 0.639998 16.0716 0.906439
4289.92 0.643185 0.638473 16.1062 0.906461
4290.27 0.640968 0.637281 16.1499 0.906483
4290.62 0.637666 0.636366 16.228 0.906505
4290.98 0.633949 0.635653 16.3066 0.906527
4291.33 0.630561 0.635066 16.3772 0.906549
4291.68 0.628129 0.63453 16.4435 0.906572
4292.03 0.627199 0.633985 16.5026 0.906594
4292.38 0.627968 0.633395 16.477 0.906617
4292.73 0.629538 0.632738 16.4514 0.906639
4293.08 0.630826 0.632008 16.4376 0.906662
4293.43 0.631347 0.631197 16.4347 0.906684
4293.79 0.63118 0.630275 16.4317 0.906707
4294.14 0.630463 0.629202 16.459 0.90673
4294.49 0.629503 0.627935 16.4877 0.906753
4294.84 0.628638 0.626416 16.5516 0.906776
4295.19 0.627686 0.624563 16.67 0.906799
4295.54 0.625773 0.622287 16.7897 0.906822
4295.89 0.622102 0.619496 16.9546 0.906845
4296.25 0.616678 0.616117 17.1309 0.906868
4296.6 0.609837 0.612124 17.3063 0.906891
4296.95 0.602235 0.607569 17.4751 0.906914
4297.3 0.595116 0.602562 17.6464 0.906938
4297.65 0.589618 0.597229 17.7742 0.906961
4298.0 0.5852 0.591682 17.885 0.906984
4298.35 0.580374 0.586004 18.0082 0.907008
4298.71 0.574274 0.580258 18.1953 0.907031
4299.06 0.567634 0.574483 18.3853 0.907055
4299.41 0.561398 0.568742 18.57 0.907079
4299.76 0.55588 0.563135 18.7517 0.907102
4300.11 0.550902 0.557776 18.9357 0.907126
4300.47 0.546272 0.552742 19.1105 0.90715
4300.82 0.541791 0.548068 19.2877 0.907174
4301.17 0.537262 0.543727 19.4599 0.907198
4301.52 0.53264 0.539632 19.6263 0.907222
4301.87 0.528038 0.535694 19.7947 0.907246
4302.22 0.523593 0.53189 19.9345 0.90727
4302.58 0.519524 0.528243 20.0731 0.907294
4302.93 0.516068 0.524832 20.1898 0.907318
4303.28 0.513273 0.521764 20.2667 0.907342
4303.63 0.510911 0.519117 20.344 0.907367
4303.99 0.50881 0.516893 20.4048 0.907391
4304.34 0.507311 0.515046 20.4618 0.907415
4304.69 0.50698 0.513501 20.4952 0.90744
4305.04 0.507895 0.512187 20.4586 0.907464
4305.39 0.509193 0.511083 20.4222 0.907489
4305.75 0.50999 0.510228 20.4004 0.907514
4306.1 0.510245 0.509684 20.3849 0.907538
4306.45 0.51042 0.509497 20.3664 0.907563
4306.8 0.510936 0.509667 20.3297 0.907588
4307.16 0.512091 0.510162 20.293 0.907613
4307.51 0.514133 0.510977 20.2193 0.907638
4307.86 0.51686 0.512162 20.1206 0.907662
4308.21 0.51971 0.513818 20.0214 0.907687
4308.57 0.522501 0.516099 19.8947 0.907713
4308.92 0.526443 0.519168 19.7692 0.907738
4309.27 0.532996 0.523123 19.5584 0.907763
4309.62 0.542044 0.527973 19.2608 0.907788
4309.98 0.551834 0.533683 18.9699 0.907813
4310.33 0.56084 0.540214 18.7202 0.907838
4310.68 0.569043 0.547547 18.4778 0.907864
4311.03 0.576886 0.555697 18.2356 0.907889
4311.39 0.584865 0.564723 17.991 0.907915
4311.74 0.593545 0.574691 17.7513 0.90794
4312.09 0.603425 0.585617 17.4802 0.907966
4312.44 0.614525 0.597458 17.208 0.907991
4312.8 0.626664 0.610115 16.9301 0.908017
4313.15 0.639552 0.623439 16.6289 0.908043
4313.5 0.652702 0.637227 16.3355 0.908068
4313.86 0.665648 0.651248 16.0539 0.908094
4314.21 0.678345 0.665282 15.781 0.90812
4314.56 0.690978 0.679146 15.5154 0.908146
4314.92 0.703754 0.692703 15.2583 0.908172
4315.27 0.716929 0.705865 15.0075 0.908198
4315.62 0.73068 0.718583 14.7713 0.908224
4315.97 0.744041 0.730797 14.5454 0.90825
4316.33 0.755225 0.742389 14.3315 0.908276
4316.68 0.763033 0.753196 14.2003 0.908302
4317.03 0.768186 0.763039 14.0709 0.908328
4317.39 0.771782 0.771749 13.9758 0.908355
4317.74 0.774926 0.779197 13.9102 0.908381
4318.09 0.778735 0.785326 13.8451 0.908407
4318.45 0.783793 0.790121 13.7999 0.908434
4318.8 0.788447 0.793573 13.7554 0.908461
4319.15 0.790502 0.795658 13.7414 0.908488
4319.51 0.7892 0.796347 13.7668 0.908514
4319.86 0.785489 0.79561 13.7922 0.908542
4320.21 0.780383 0.793434 13.8912 0.908569
4320.57 0.774724 0.789867 14.0005 0.908596
4320.92 0.76929 0.785031 14.103 0.908624
4321.27 0.764383 0.779122 14.1909 0.908651
4321.63 0.759587 0.772379 14.2796 0.908679
4321.98 0.754452 0.765069 14.3812 0.908707
4322.34 0.748712 0.75745 14.487 0.908735
4322.69 0.742182 0.749739 14.5999 0.908764
4323.04 0.734943 0.742117 14.7318 0.908792
4323.4 0.727585 0.73478 14.8655 0.908821
4323.75 0.72075 0.727937 14.9952 0.90885
4324.1 0.715022 0.721804 15.1242 0.908879
4324.46 0.710953 0.716578 15.2403 0.908909
4324.81 0.708689 0.712406 15.2829 0.908938
4325.17 0.70738 0.709347 15.3256 0.908968
4325.52 0.70611 0.707399 15.3426 0.908998
4325.87 0.705163 0.706536 15.3436 0.909029
4326.23 0.7057 0.706734 15.3395 0.90906
4326.58 0.70845 0.707978 15.2729 0.909091
4326.94 0.712712 0.710267 15.2068 0.909122
4327.29 0.717527 0.713588 15.1197 0.909153
4327.64 0.722486 0.717894 15.0149 0.909185
4328.0 0.727676 0.723111 14.9112 0.909217
4328.35 0.733326 0.729156 14.7788 0.90925
4328.71 0.740165 0.735923 14.6479 0.909283
4329.06 0.749002 0.743262 14.5022 0.909316
4329.41 0.759206 0.750976 14.3389 0.909349
4329.77 0.768515 0.75885 14.1783 0.909383
4330.12 0.775111 0.76665 14.0773 0.909417
4330.48 0.779966 0.774163 13.9828 0.909452
4330.83 0.784931 0.781236 13.8881 0.909487
4331.19 0.790701 0.787782 13.7923 0.909522
4331.54 0.796343 0.793713 13.6976 0.909557
4331.89 0.800892 0.798933 13.6473 0.909593
4332.25 0.803978 0.803313 13.6061 0.90963
4332.6 0.805477 0.806693 13.5785 0.909667
4332.96 0.805478 0.808914 13.5836 0.909704
4333.31 0.804432 0.809878 13.5888 0.909741
4333.67 0.802802 0.809564 13.6123 0.909779
4334.02 0.800805 0.808035 13.6418 0.909818
4334.38 0.798534 0.805412 13.6728 0.909857
4334.73 0.795986 0.801838 13.7085 0.909896
4335.09 0.792957 0.797429 13.7443 0.909936
4335.44 0.789215 0.792246 13.8099 0.909976
4335.8 0.784521 0.786286 13.8901 0.910017
4336.15 0.778632 0.779545 13.98 0.910058
4336.5 0.7714 0.772069 14.1267 0.9101
4336.86 0.762936 0.763993 14.2756 0.910142
4337.21 0.753427 0.75556 14.4406 0.910185
4337.57 0.743576 0.747131 14.6176 0.910228
4337.92 0.73448 0.739083 14.7943 0.910272
4338.28 0.727075 0.731718 14.9253 0.910316
4338.63 0.721745 0.725214 15.058 0.910361
4338.99 0.718715 0.719623 15.1408 0.910407
4339.34 0.717348 0.714884 15.1788 0.910452
4339.7 0.716214 0.710903 15.2169 0.910499
4340.05 0.71423 0.707635 15.2623 0.910546
4340.41 0.711841 0.705124 15.3079 0.910593
4340.76 0.709862 0.703493 15.3391 0.910642
4341.12 0.70872 0.702886 15.3535 0.91069
4341.47 0.708413 0.703416 15.3679 0.91074
4341.83 0.708971 0.705113 15.3439 0.91079
4342.19 0.710681 0.707891 15.317 0.91084
4342.54 0.713903 0.71157 15.2668 0.910891
4342.9 0.718621 0.715931 15.1814 0.910943
4343.25 0.724329 0.720764 15.0967 0.910996
4343.61 0.730473 0.725933 14.9902 0.911049
4343.96 0.736441 0.731391 14.8812 0.911102
4344.32 0.741608 0.737152 14.7837 0.911157
4344.67 0.745943 0.743249 14.708 0.911212
4345.03 0.750345 0.749682 14.6328 0.911267
4345.38 0.755669 0.756354 14.535 0.911324
4345.74 0.761819 0.763068 14.4324 0.911381
4346.09 0.768275 0.76957 14.3339 0.911439
4346.45 0.774512 0.775589 14.245 0.911497
4346.81 0.780006 0.780896 14.1569 0.911556
4347.16 0.784281 0.785342 14.1031 0.911616
4347.52 0.78732 0.788873 14.0615 0.911677
4347.87 0.789351 0.791506 14.0256 0.911738
4348.23 0.79062 0.793311 14.011 0.9118
4348.58 0.791408 0.794386 13.9965 0.911863
4348.94 0.791981 0.794825 13.987 0.911926
4349.3 0.792353 0.794714 13.98 0.911991
4349.65 0.792381 0.79412 13.9745 0.912056
4350.01 0.792004 0.793089 13.9776 0.912121
4350.36 0.791376 0.791655 13.9808 0.912188
4350.72 0.790683 0.789867 14.0021 0.912255
4351.08 0.790018 0.787821 14.0349 0.912324
4351.43 0.789408 0.785648 14.0653 0.912393
4351.79 0.788877 0.7835 14.0717 0.912463
4352.14 0.788448 0.78154 14.0781 0.912533
4352.5 0.788143 0.779921 14.0835 0.912605
4352.86 0.787991 0.778743 14.0882 0.912677
4353.21 0.78803 0.778052 14.0931 0.91275
4353.57 0.788279 0.777867 14.1021 0.912824
4353.92 0.788697 0.778186 14.1112 0.912899
4354.28 0.789226 0.778976 14.1203 0.912975
4354.64 0.789756 0.780205 14.1297 0.913051
4354.99 0.790124 0.781862 14.139 0.913129
4355.35 0.790202 0.783935 14.1488 0.913207
4355.71 0.790028 0.786402 14.1586 0.913286
4356.06 0.789689 0.78925 14.1656 0.913367
4356.42 0.789474 0.79245 14.1693 0.913448
4356.78 0.789899 0.795948 14.1729 0.91353
4357.13 0.791421 0.799695 14.1295 0.913613
4357.49 0.794141 0.803651 14.0828 0.913696
4357.85 0.79805 0.807759 14.0249 0.913781
4358.2 0.80298 0.81196 13.9511 0.913867
4358.56 0.808565 0.816205 13.8778 0.913954
4358.91 0.814437 0.820438 13.8046 0.914041
4359.27 0.820275 0.824599 13.7319 0.91413
4359.63 0.82578 0.828664 13.6659 0.91422
4359.98 0.830786 0.83265 13.6114 0.91431
4360.34 0.835318 0.836578 13.5571 0.914402
4360.7 0.839416 0.840479 13.4939 0.914495
4361.06 0.843112 0.844383 13.4294 0.914588
4361.41 0.84643 0.848266 13.3725 0.914683
4361.77 0.849378 0.852051 13.3317 0.914778
4362.13 0.851927 0.855629 13.2911 0.914875
4362.48 0.854061 0.858871 13.2641 0.914973
4362.84 0.855884 0.86164 13.2406 0.915071
4363.2 0.857555 0.863851 13.2187 0.915171
4363.55 0.859189 0.865475 13.2005 0.915272
4363.91 0.860818 0.866529 13.1824 0.915373
4364.27 0.862439 0.867077 13.1639 0.915476
4364.62 0.86383 0.867218 13.1453 0.915579
4364.98 0.864655 0.867021 13.1314 0.915683
4365.34 0.864686 0.866538 13.1333 0.915788
4365.7 0.863921 0.865805 13.1351 0.915894
4366.05 0.862389 0.864821 13.1784 0.916001
4366.41 0.860157 0.863559 13.239 0.916109
4366.77 0.857311 0.862005 13.2974 0.916217
4367.13 0.854033 0.86013 13.3453 0.916327
4367.48 0.850726 0.857911 13.3934 0.916437
4367.84 0.847788 0.855366 13.4337 0.916548
4368.2 0.845243 0.852542 13.4703 0.916659
4368.55 0.842875 0.849481 13.5077 0.916772
4368.91 0.840409 0.846237 13.5491 0.916885
4369.27 0.837428 0.842859 13.5908 0.916999
4369.63 0.833545 0.839359 13.6487 0.917114
4369.98 0.829057 0.83574 13.7162 0.917229
4370.34 0.824745 0.832015 13.7823 0.917345
4370.7 0.821189 0.828203 13.8339 0.917462
4371.06 0.818386 0.82433 13.8858 0.917579
4371.42 0.816209 0.82043 13.9396 0.917697
4371.77 0.814244 0.81653 13.9948 0.917816
4372.13 0.811854 0.812657 14.052 0.917935
4372.49 0.808608 0.808857 14.1278 0.918055
4372.85 0.804738 0.805199 14.2041 0.918176
4373.2 0.800613 0.801767 14.2709 0.918297
4373.56 0.796769 0.798649 14.3304 0.918419
4373.92 0.79388 0.795924 14.3873 0.918541
4374.28 0.792446 0.793625 14.3927 0.918664
4374.64 0.792364 0.791721 14.3981 0.918787
4374.99 0.793373 0.790138 14.3918 0.918911
4375.35 0.794625 0.78876 14.3756 0.919035
4375.71 0.794749 0.787448 14.361 0.91916
4376.07 0.792916 0.786083 14.4073 0.919285
4376.43 0.790395 0.784582 14.4538 0.919411
4376.78 0.788875 0.782887 14.4717 0.919537
4377.14 0.788707 0.780971 14.462 0.919664
4377.5 0.788935 0.77882 14.4524 0.919791
4377.86 0.788592 0.776399 14.4921 0.919919
4378.22 0.78687 0.773635 14.532 0.920046
4378.57 0.783033 0.770449 14.6168 0.920175
4378.93 0.777061 0.766742 14.7503 0.920303
4379.29 0.769676 0.762426 14.8857 0.920432
4379.65 0.761529 0.75747 15.0578 0.920562
4380.01 0.752811 0.751914 15.234 0.920691
4380.37 0.743607 0.745865 15.4202 0.920821
4380.72 0.73453 0.739504 15.6181 0.920951
4381.08 0.726775 0.733033 15.8198 0.921082
4381.44 0.721264 0.726638 15.9294 0.921213
4381.8 0.717496 0.720463 16.0353 0.921344
4382.16 0.714565 0.714601 16.134 0.921475
4382.52 0.711765 0.709078 16.223 0.921607
4382.88 0.708616 0.703901 16.3128 0.921739
4383.23 0.704784 0.699106 16.4055 0.921871
4383.59 0.700562 0.694765 16.4991 0.922003
4383.95 0.696439 0.690988 16.5862 0.922135
4384.31 0.692933 0.687915 16.664 0.922267
4384.67 0.690594 0.685682 16.7424 0.9224
4385.03 0.689864 0.684381 16.735 0.922533
4385.39 0.690616 0.684038 16.7193 0.922666
4385.74 0.692534 0.684636 16.6879 0.922799
4386.1 0.69517 0.686116 16.6336 0.922932
4386.46 0.697912 0.688376 16.5795 0.923065
4386.82 0.700262 0.691302 16.5299 0.923198
4387.18 0.702444 0.694801 16.4809 0.923332
4387.54 0.704923 0.698803 16.4221 0.923465
4387.9 0.708087 0.703264 16.3478 0.923598
4388.26 0.712227 0.708177 16.2741 0.923732
4388.62 0.717521 0.713523 16.1681 0.923865
4388.98 0.723546 0.719246 16.0588 0.923999
4389.33 0.72967 0.725251 15.949 0.924132
4389.69 0.735197 0.731417 15.8375 0.924265
4390.05 0.739355 0.737614 15.7273 0.924398
4390.41 0.741673 0.743741 15.6804 0.924532
4390.77 0.743525 0.749732 15.6432 0.924665
4391.13 0.746938 0.755548 15.5797 0.924798
4391.49 0.752612 0.76117 15.471 0.924931
4391.85 0.759348 0.766595 15.3633 0.925063
4392.21 0.765892 0.771807 15.2711 0.925196
4392.57 0.77156 0.776794 15.1821 0.925328
4392.93 0.775893 0.781551 15.1049 0.925461
4393.29 0.778952 0.786082 15.0485 0.925593
4393.65 0.781549 0.790396 14.9924 0.925725
4394.01 0.784455 0.794521 14.9347 0.925856
4394.37 0.787767 0.798489 14.877 0.925988
4394.72 0.791329 0.802325 14.8156 0.926119
4395.08 0.795117 0.806025 14.7472 0.92625
4395.44 0.799312 0.809555 14.6792 0.926381
4395.8 0.804042 0.812842 14.6097 0.926512
4396.16 0.808995 0.815786 14.5403 0.926642
4396.52 0.81369 0.818271 14.4803 0.926772
4396.88 0.817703 0.820215 14.4376 0.926901
4397.24 0.820706 0.821594 14.3951 0.927031
4397.6 0.822432 0.822436 14.383 0.927159
4397.96 0.822948 0.822823 14.3766 0.927288
4398.32 0.822461 0.822878 14.3812 0.927416
4398.68 0.821271 0.822682 14.407 0.927544
4399.04 0.819824 0.822244 14.4328 0.927671
4399.4 0.818545 0.821485 14.4621 0.927798
4399.76 0.817653 0.820222 14.4922 0.927925
4400.12 0.817265 0.818246 14.5285 0.928051
4400.48 0.816786 0.815417 14.5771 0.928177
4400.84 0.81452 0.811711 14.6259 0.928302
4401.2 0.809054 0.807246 14.737 0.928427
4401.56 0.801409 0.802288 14.8615 0.928551
4401.92 0.793581 0.79714 14.9775 0.928675
4402.28 0.787029 0.792042 15.0752 0.928798
4402.64 0.782392 0.787135 15.1738 0.928921
4403.0 0.779994 0.782453 15.2227 0.929043
4403.36 0.77857 0.777964 15.2623 0.929165
4403.72 0.77624 0.773641 15.3142 0.929286
4404.08 0.772455 0.769541 15.3902 0.929406
4404.44 0.768679 0.76582 15.4668 0.929526
4404.8 0.766317 0.762708 15.5038 0.929645
4405.16 0.76529 0.760444 15.5334 0.929764
4405.53 0.76494 0.759206 15.5477 0.929882
4405.89 0.764932 0.759058 15.5329 0.929999
4406.25 0.765409 0.759938 15.5182 0.930116
4406.61 0.766544 0.761689 15.4894 0.930232
4406.97 0.768418 0.764129 15.4582 0.930347
4407.33 0.771076 0.767119 15.4222 0.930462
4407.69 0.774489 0.770615 15.3774 0.930575
4408.05 0.77852 0.774658 15.3328 0.930688
4408.41 0.783042 0.779332 15.2653 0.930801
4408.77 0.788025 0.784707 15.1944 0.930912
4409.13 0.793478 0.790767 15.1107 0.931023
4409.49 0.799335 0.797357 15.0046 0.931133
4409.85 0.80542 0.804211 14.8996 0.931243
4410.21 0.811551 0.810994 14.7985 0.931351
4410.57 0.81757 0.81735 14.6988 0.931459
4410.94 0.823324 0.823007 14.6058 0.931566
4411.3 0.828691 0.827853 14.5231 0.931672
4411.66 0.833593 0.831926 14.4411 0.931778
4412.02 0.837963 0.835379 14.379 0.931882
4412.38 0.841763 0.838414 14.3198 0.931986
4412.74 0.844972 0.841195 14.2714 0.932089
4413.1 0.847576 0.843787 14.2393 0.932192
4413.46 0.849578 0.846155 14.2074 0.932293
4413.82 0.851031 0.8482 14.2058 0.932394
4414.18 0.852257 0.849856 14.2077 0.932493
4414.55 0.853661 0.851132 14.1958 0.932592
4414.91 0.855317 0.852126 14.1635 0.93269
4415.27 0.856873 0.853014 14.1313 0.932788
4415.63 0.858047 0.853998 14.1162 0.932884
4415.99 0.859078 0.85518 14.1027 0.93298
4416.35 0.860371 0.85655 14.0864 0.933074
4416.71 0.862102 0.858014 14.0662 0.933168
4417.07 0.864165 0.859421 14.046 0.933261
4417.44 0.866344 0.860632 14.0198 0.933353
4417.8 0.867951 0.861638 13.9933 0.933444
4418.16 0.868179 0.862516 13.9954 0.933534
4418.52 0.867013 0.863391 14.034 0.933624
4418.88 0.865368 0.864402 14.0728 0.933712
4419.24 0.864101 0.865641 14.0801 0.9338
4419.61 0.86356 0.867093 14.0857 0.933886
4419.97 0.863934 0.868704 14.0825 0.933972
4420.33 0.865109 0.870393 14.0687 0.934057
4420.69 0.866633 0.87204 14.0551 0.934141
4421.05 0.868082 0.873539 14.0485 0.934224
4421.41 0.869217 0.874828 14.0422 0.934306
4421.78 0.869862 0.875841 14.0411 0.934387
4422.14 0.870081 0.876541 14.0455 0.934467
4422.5 0.87019 0.876947 14.05 0.934546
4422.86 0.870472 0.877108 14.0432 0.934624
4423.22 0.871018 0.877064 14.0364 0.934702
4423.58 0.87187 0.876863 14.0289 0.934778
4423.95 0.872892 0.87654 14.0207 0.934853
4424.31 0.873786 0.87609 14.0128 0.934927
4424.67 0.874292 0.875502 14.0184 0.935001
4425.03 0.874325 0.874795 14.0239 0.935073
4425.39 0.873853 0.873999 14.0309 0.935144
4425.76 0.873011 0.873153 14.0391 0.935215
4426.12 0.87209 0.8723 14.0471 0.935284
4426.48 0.871365 0.87147 14.051 0.935352
4426.84 0.871044 0.870662 14.0549 0.935419
4427.21 0.871304 0.86987 14.0552 0.935485
4427.57 0.872063 0.869103 14.0529 0.935551
4427.93 0.873025 0.868384 14.0523 0.935615
4428.29 0.873764 0.867748 14.0703 0.935678
4428.65 0.873464 0.867239 14.0883 0.93574
4429.02 0.871326 0.866855 14.1221 0.935801
4429.38 0.867923 0.86653 14.1667 0.935861
4429.74 0.864888 0.866168 14.2083 0.935919
4430.1 0.863375 0.865686 14.2251 0.935977
4430.47 0.863095 0.865019 14.2419 0.936034
4430.83 0.863484 0.864163 14.2572 0.936089
4431.19 0.863716 0.863184 14.2717 0.936144
4431.55 0.862782 0.862164 14.2916 0.936197
4431.92 0.8603 0.861153 14.3423 0.93625
4432.28 0.857514 0.860181 14.3932 0.936301
4432.64 0.855799 0.85927 14.4201 0.936351
4433.0 0.855067 0.858442 14.435 0.9364
4433.37 0.854284 0.857735 14.451 0.936448
4433.73 0.852913 0.857225 14.4723 0.936494
4434.09 0.851609 0.857005 14.4937 0.93654
4434.46 0.851146 0.857139 14.4845 0.936584
4434.82 0.851807 0.857654 14.4626 0.936627
4435.18 0.853593 0.858548 14.4351 0.93667
4435.54 0.856345 0.859786 14.3885 0.93671
4435.91 0.859588 0.861329 14.3421 0.93675
4436.27 0.862832 0.863136 14.3003 0.936789
4436.63 0.865777 0.865165 14.2601 0.936826
4437.0 0.86823 0.867375 14.2264 0.936863
4437.36 0.870193 0.869716 14.2101 0.936898
4437.72 0.872025 0.872118 14.1938 0.936931
4438.09 0.874071 0.874525 14.1756 0.936964
4438.45 0.876256 0.876901 14.157 0.936996
4438.81 0.878311 0.879219 14.1391 0.937026
4439.17 0.880042 0.881462 14.1227 0.937055
4439.54 0.881384 0.883641 14.1063 0.937083
4439.9 0.88232 0.885774 14.0904 0.937109
4440.26 0.883082 0.887876 14.0747 0.937135
4440.63 0.884003 0.889974 14.0572 0.937159
4440.99 0.885423 0.89211 14.0362 0.937182
4441.35 0.887696 0.894311 14.0153 0.937203
4441.72 0.891057 0.896573 13.9762 0.937224
4442.08 0.89505 0.898858 13.9348 0.937243
4442.44 0.898973 0.901086 13.8926 0.937261
4442.81 0.902416 0.903168 13.8491 0.937277
4443.17 0.905347 0.905035 13.8058 0.937292
4443.54 0.907763 0.906679 13.7742 0.937307
4443.9 0.909678 0.908187 13.7437 0.937319
4444.26 0.911114 0.909713 13.7241 0.937331
4444.63 0.912165 0.911403 13.7181 0.937341
4444.99 0.913008 0.913358 13.7121 0.93735
4445.35 0.913845 0.9156 13.7174 0.937357
4445.72 0.914951 0.918033 13.7229 0.937363
4446.08 0.916632 0.920481 13.7071 0.937368
4446.44 0.919341 0.922761 13.6698 0.937372
4446.81 0.923682 0.924733 13.6318 0.937374
4447.17 0.9297 0.926325 13.5565 0.937375
4447.54 0.935341 0.927541 13.4818 0.937374
4447.9 0.938165 0.928436 13.4519 0.937373
4448.26 0.937674 0.92905 13.4583 0.937369
4448.63 0.935072 0.929371 13.4674 0.937365
4448.99 0.931532 0.929313 13.5085 0.937359
4449.36 0.927942 0.928752 13.5497 0.937352
4449.72 0.925068 0.927565 13.5961 0.937343
4450.08 0.922702 0.925673 13.646 0.937333
4450.45 0.919892 0.923057 13.6983 0.937322
4450.81 0.916076 0.919776 13.7657 0.937309
4451.18 0.911799 0.915912 13.8336 0.937295
4451.54 0.907724 0.911553 13.9079 0.937279
4451.91 0.903729 0.906769 13.9859 0.937262
4452.27 0.899183 0.901614 14.0681 0.937244
4452.63 0.893744 0.896122 14.167 0.937224
4453.0 0.887754 0.890325 14.2668 0.937202
4453.36 0.881634 0.884249 14.361 0.93718
4453.73 0.875686 0.87793 14.4535 0.937155
4454.09 0.870138 0.871419 14.5427 0.93713
4454.46 0.86505 0.864783 14.6203 0.937103
4454.82 0.860156 0.85813 14.6985 0.937074
4455.18 0.855161 0.851615 14.7782 0.937044
4455.55 0.849856 0.845416 14.8587 0.937013
4455.91 0.844073 0.839699 14.9477 0.93698
4456.28 0.837994 0.834587 15.0553 0.936946
4456.64 0.832372 0.830119 15.1641 0.936911
4457.01 0.827932 0.826256 15.2298 0.936874
4457.37 0.824882 0.822918 15.2876 0.936836
4457.74 0.823214 0.820033 15.3324 0.936797
4458.1 0.822693 0.81758 15.355 0.936757
4458.47 0.822758 0.8156 15.3776 0.936715
4458.83 0.822874 0.814189 15.3868 0.936672
4459.2 0.82274 0.813454 15.3946 0.936628
4459.56 0.822161 0.813466 15.4058 0.936583
4459.93 0.821634 0.814226 15.4213 0.936537
4460.29 0.822465 0.815665 15.4368 0.936489
4460.66 0.825527 0.817641 15.3693 0.936441
4461.02 0.82961 0.820002 15.3001 0.936391
4461.39 0.832991 0.822645 15.2377 0.936341
4461.75 0.835043 0.825524 15.1817 0.936289
4462.12 0.836206 0.828653 15.1267 0.936236
4462.48 0.837039 0.832094 15.0878 0.936183
4462.85 0.838364 0.835881 15.049 0.936128
4463.21 0.841027 0.839959 15.0004 0.936073
4463.58 0.84533 0.844216 14.9448 0.936017
4463.94 0.851127 0.84851 14.8812 0.93596
4464.31 0.857866 0.852694 14.7539 0.935901
4464.67 0.863863 0.856692 14.6283 0.935843
4465.04 0.867418 0.860527 14.5878 0.935783
4465.4 0.869137 0.864276 14.5925 0.935722
4465.77 0.871176 0.868019 14.587 0.935661
4466.13 0.874864 0.871819 14.5369 0.935599
4466.5 0.879536 0.875689 14.4871 0.935537
4466.86 0.884278 0.879589 14.4386 0.935473
4467.23 0.888485 0.883452 14.3909 0.935409
4467.6 0.891723 0.887216 14.3465 0.935345
4467.96 0.893928 0.890839 14.3115 0.935279
4468.33 0.895726 0.89431 14.2766 0.935213
4468.69 0.89777 0.89766 14.235 0.935147
4469.06 0.900337 0.900965 14.1918 0.93508
4469.42 0.903534 0.904341 14.1452 0.935012
4469.79 0.907374 0.907902 14.0917 0.934944
4470.15 0.91173 0.911703 14.0385 0.934875
4470.52 0.916436 0.915735 13.9907 0.934806
4470.89 0.921178 0.919917 13.9438 0.934737
4471.25 0.925593 0.924111 13.9031 0.934667
4471.62 0.929397 0.928195 13.871 0.934596
4471.98 0.932416 0.932118 13.839 0.934526
4472.35 0.934541 0.935897 13.8227 0.934455
4472.72 0.935954 0.939598 13.8072 0.934383
4473.08 0.936927 0.9433 13.7975 0.934311
4473.45 0.937941 0.947043 13.7939 0.934239
4473.81 0.939687 0.950798 13.7889 0.934167
4474.18 0.942622 0.95448 13.7471 0.934095
4474.55 0.946325 0.957964 13.7056 0.934022
4474.91 0.950192 0.961119 13.6667 0.933949
4475.28 0.953883 0.963845 13.6298 0.933876
4475.64 0.957267 0.96611 13.5936 0.933802
4476.01 0.960234 0.967915 13.5607 0.933729
4476.38 0.962712 0.969273 13.5279 0.933656
4476.74 0.964637 0.970191 13.5047 0.933582
4477.11 0.965949 0.970645 13.4864 0.933508
4477.48 0.966588 0.970549 13.4749 0.933435
4477.84 0.966585 0.969843 13.4897 0.933361
4478.21 0.96617 0.968538 13.5045 0.933287
4478.57 0.965548 0.966712 13.517 0.933213
4478.94 0.964503 0.964521 13.5287 0.93314
4479.31 0.962606 0.962196 13.5461 0.933066
4479.67 0.959936 0.959946 13.5776 0.932993
4480.04 0.957451 0.957926 13.6091 0.932919
4480.41 0.956073 0.956231 13.6241 0.932846
4480.77 0.955944 0.9549 13.636 0.932773
4481.14 0.956877 0.953914 13.6434 0.9327
4481.51 0.958322 0.953231 13.6437 0.932628
4481.87 0.959232 0.952797 13.644 0.932555
4482.24 0.958779 0.952568 13.6809 0.932483
4482.61 0.957417 0.952531 13.7208 0.932411
4482.97 0.955985 0.952701 13.7435 0.932339
4483.34 0.955124 0.953094 13.7468 0.932268
4483.71 0.955261 0.953718 13.7493 0.932197
4484.07 0.956651 0.954554 13.7093 0.932127
4484.44 0.958939 0.955536 13.6696 0.932057
4484.81 0.961632 0.956582 13.6313 0.931987
4485.18 0.964276 0.957639 13.5941 0.931917
4485.54 0.966459 0.958667 13.5602 0.931849
4485.91 0.967886 0.959634 13.5496 0.93178
4486.28 0.968611 0.960511 13.5391 0.931712
4486.64 0.968746 0.961259 13.5482 0.931645
4487.01 0.968426 0.961815 13.5673 0.931578
4487.38 0.9678 0.962112 13.5897 0.931512
4487.74 0.966941 0.962106 13.6245 0.931446
4488.11 0.965769 0.961768 13.6594 0.931381
4488.48 0.964193 0.961085 13.7054 0.931317
4488.85 0.962228 0.960062 13.755 0.931253
4489.21 0.959942 0.95872 13.806 0.93119
4489.58 0.957439 0.957074 13.8601 0.931128
4489.95 0.954883 0.955146 13.9144 0.931066
4490.32 0.952427 0.952974 13.9661 0.931005
4490.68 0.950138 0.950617 14.0177 0.930945
4491.05 0.948044 0.948141 14.0668 0.930886
4491.42 0.945968 0.945641 14.1123 0.930827
4491.79 0.943485 0.943212 14.158 0.93077
4492.15 0.940238 0.940936 14.2354 0.930713
4492.52 0.93628 0.938877 14.3147 0.930657
4492.89 0.931788 0.937079 14.3709 0.930602
4493.26 0.927207 0.935558 14.4046 0.930548
4493.62 0.92324 0.934333 14.4351 0.930495
4493.99 0.920508 0.933435 14.4189 0.930443
4494.36 0.919317 0.932917 14.4027 0.930391
4494.73 0.919882 0.932865 14.3628 0.930341
4495.09 0.921965 0.933358 14.3085 0.930292
4495.46 0.924997 0.934432 14.2531 0.930244
4495.83 0.92828 0.936069 14.1915 0.930197
4496.2 0.930823 0.938202 14.1303 0.930152
4496.57 0.931779 0.940736 14.112 0.930107
4496.93 0.93212 0.943585 14.1101 0.930063
4497.3 0.933814 0.946697 14.099 0.930021
4497.67 0.937747 0.950063 14.0637 0.92998
4498.04 0.942818 0.953702 14.0285 0.92994
4498.41 0.947794 0.95764 13.9874 0.929901
4498.77 0.951953 0.961901 13.9452 0.929864
4499.14 0.954807 0.966507 13.9045 0.929828
4499.51 0.956977 0.971441 13.866 0.929793
4499.88 0.960584 0.976643 13.8277 0.92976
4500.25 0.967262 0.982002 13.7321 0.929728
4500.61 0.975806 0.987367 13.6339 0.929697
4500.98 0.984206 0.992584 13.5429 0.929668
4501.35 0.99152 0.997553 13.4591 0.92964
4501.72 0.997891 1.00226 13.3774 0.929613
4502.09 1.00352 1.00674 13.3218 0.929588
4502.46 1.00866 1.0111 13.2665 0.929565
4502.82 1.01356 1.01538 13.2144 0.929543
4503.19 1.01833 1.01958 13.1644 0.929522
4503.56 1.02299 1.02363 13.1127 0.929503
4503.93 1.02747 1.02744 13.0519 0.929485
4504.3 1.03153 1.03095 12.9915 0.929468
4504.67 1.0349 1.03416 12.952 0.929453
4505.04 1.03764 1.03709 12.9203 0.92944
4505.4 1.03993 1.03974 12.8928 0.929427
4505.77 1.04202 1.0421 12.8756 0.929416
4506.14 1.04422 1.04411 12.8584 0.929406
4506.51 1.04677 1.0457 12.8294 0.929398
4506.88 1.0495 1.04679 12.7982 0.92939
4507.25 1.05205 1.04736 12.7718 0.929384
4507.62 1.054 1.0474 12.7524 0.92938
4507.99 1.05482 1.04695 12.7331 0.929376
4508.35 1.05409 1.04611 12.7585 0.929374
4508.72 1.05174 1.04494 12.7859 0.929373
4509.09 1.04787 1.04349 12.8299 0.929373
4509.46 1.04313 1.04185 12.8895 0.929375
4509.83 1.03869 1.04003 12.948 0.929378
4510.2 1.03538 1.03803 12.9887 0.929381
4510.57 1.0329 1.03587 13.0295 0.929386
4510.94 1.03076 1.03354 13.0684 0.929393
4511.31 1.02869 1.03106 13.1062 0.9294
4511.67 1.02663 1.02846 13.1425 0.929408
4512.04 1.02457 1.02577 13.1723 0.929418
4512.41 1.02264 1.02308 13.2023 0.929429
4512.78 1.02092 1.02043 13.2169 0.92944
4513.15 1.01888 1.01788 13.2268 0.929453
4513.52 1.01572 1.01544 13.2606 0.929467
4513.89 1.0112 1.01308 13.3439 0.929482
4514.26 1.00601 1.01076 13.428 0.929498
4514.63 1.00094 1.00847 13.4868 0.929515
4515.0 0.997061 1.00626 13.5428 0.929534
4515.37 0.995516 1.00425 13.5722 0.929553
4515.74 0.996571 1.00255 13.5693 0.929573
4516.11 0.99952 1.00125 13.5658 0.929594
4516.48 1.00346 1.00037 13.5243 0.929616
4516.85 1.00697 0.999873 13.4829 0.929639
4517.22 1.0086 0.999601 13.4606 0.929663
4517.58 1.00899 0.999427 13.4518 0.929688
4517.95 1.01041 0.999243 13.4392 0.929714
4518.32 1.01396 0.998975 13.4041 0.929741
4518.69 1.01753 0.998588 13.3691 0.929768
4519.06 1.01871 0.998076 13.3714 0.929797
4519.43 1.01713 0.997422 13.3887 0.929827
4519.8 1.01357 0.996587 13.4133 0.929857
4520.17 1.00894 0.99553 13.457 0.929888
4520.54 1.00428 0.994229 13.5008 0.92992
4520.91 1.00049 0.992657 13.5493 0.929953
4521.28 0.99752 0.990768 13.5988 0.929987
4521.65 0.994952 0.988491 13.6471 0.930021
4522.02 0.992298 0.985735 13.6933 0.930057
4522.39 0.989007 0.982396 13.7398 0.930093
4522.76 0.984637 0.978417 13.8279 0.930129
4523.13 0.979221 0.97382 13.9177 0.930167
4523.5 0.972927 0.968687 14.0151 0.930205
4523.87 0.966009 0.963111 14.119 0.930245
4524.24 0.9588 0.957158 14.2238 0.930284
4524.61 0.951599 0.950862 14.327 0.930325
4524.98 0.944596 0.944254 14.4314 0.930366
4525.35 0.937948 0.937404 14.5285 0.930408
4525.72 0.931641 0.930441 14.6228 0.930451
4526.09 0.925559 0.923541 14.7182 0.930494
4526.46 0.919646 0.916864 14.8152 0.930538
4526.83 0.91396 0.910514 14.9131 0.930582
4527.21 0.908553 0.90453 14.997 0.930627
4527.58 0.90332 0.898917 15.0784 0.930673
4527.95 0.898094 0.893673 15.1621 0.93072
4528.32 0.892899 0.888826 15.249 0.930767
4528.69 0.888004 0.884442 15.3367 0.930814
4529.06 0.883696 0.880609 15.4058 0.930862
4529.43 0.880247 0.877406 15.4747 0.930911
4529.8 0.877914 0.874871 15.5157 0.93096
4530.17 0.876648 0.872987 15.5323 0.93101
4530.54 0.87613 0.871701 15.5485 0.93106
4530.91 0.876017 0.870945 15.5614 0.931111
4531.28 0.875929 0.870692 15.5743 0.931162
4531.65 0.875551 0.870982 15.5775 0.931214
4532.02 0.875316 0.871888 15.5762 0.931266
4532.39 0.876121 0.873471 15.5669 0.931319
4532.76 0.878398 0.875755 15.5343 0.931372
4533.14 0.881668 0.878687 15.5017 0.931425
4533.51 0.885307 0.882156 15.457 0.931479
4533.88 0.888414 0.886069 15.4098 0.931534
4534.25 0.890012 0.890357 15.3745 0.931588
4534.62 0.89068 0.894953 15.3567 0.931643
4534.99 0.893023 0.899787 15.3389 0.931699
4535.36 0.898947 0.904775 15.24 0.931755
4535.73 0.906762 0.909818 15.1399 0.931811
4536.1 0.913901 0.914834 15.0467 0.931868
4536.47 0.919561 0.919781 14.9592 0.931925
4536.85 0.924493 0.924643 14.8728 0.931982
4537.22 0.929403 0.929407 14.7894 0.932039
4537.59 0.934727 0.934017 14.7067 0.932097
4537.96 0.940757 0.938396 14.631 0.932155
4538.33 0.946794 0.942504 14.5586 0.932213
4538.7 0.951555 0.946353 14.5007 0.932272
4539.07 0.954447 0.949994 14.4799 0.932331
4539.45 0.956135 0.953494 14.4592 0.93239
4539.82 0.957384 0.956878 14.4436 0.932449
4540.19 0.95875 0.960077 14.4289 0.932508
4540.56 0.960696 0.962958 14.4072 0.932568
4540.93 0.963297 0.965382 14.3763 0.932628
4541.3 0.966153 0.967265 14.3455 0.932688
4541.67 0.968834 0.968605 14.3212 0.932748
4542.05 0.970876 0.969474 14.2969 0.932808
4542.42 0.971839 0.969984 14.2896 0.932869
4542.79 0.971732 0.970235 14.2941 0.932929
4543.16 0.970931 0.970292 14.3012 0.93299
4543.53 0.969803 0.97018 14.3211 0.933051
4543.9 0.968677 0.96989 14.341 0.933111
4544.28 0.967829 0.969392 14.3592 0.933172
4544.65 0.967122 0.968682 14.3768 0.933233
4545.02 0.966206 0.967797 14.3984 0.933294
4545.39 0.964882 0.966808 14.4286 0.933355
4545.76 0.963207 0.965792 14.4589 0.933416
4546.14 0.961285 0.964806 14.4914 0.933477
4546.51 0.95938 0.963861 14.5243 0.933538
4546.88 0.957801 0.962914 14.5474 0.933599
4547.25 0.95661 0.961904 14.56 0.93366
4547.62 0.955617 0.960799 14.5727 0.933721
4548.0 0.954569 0.959625 14.5876 0.933782
4548.37 0.953053 0.958434 14.6026 0.933843
4548.74 0.950676 0.957299 14.6329 0.933904
4549.11 0.947715 0.956307 14.6719 0.933965
4549.48 0.944911 0.955559 14.7068 0.934025
4549.86 0.942908 0.955165 14.7277 0.934086
4550.23 0.942148 0.955222 14.7486 0.934146
4550.6 0.942966 0.955758 14.7421 0.934206
4550.97 0.945131 0.95672 14.729 0.934267
4551.35 0.948163 0.957944 14.7101 0.934327
4551.72 0.951296 0.959225 14.6819 0.934387
4552.09 0.953395 0.960425 14.6538 0.934447
4552.46 0.953844 0.961551 14.6488 0.934507
4552.84 0.954391 0.962716 14.6444 0.934568
4553.21 0.957303 0.964107 14.6065 0.934628
4553.58 0.96281 0.965884 14.5425 0.934688
4553.95 0.969386 0.968109 14.4771 0.934748
4554.33 0.97556 0.970741 14.4019 0.934808
4554.7 0.980143 0.973695 14.3273 0.934869
4555.07 0.982249 0.97691 14.2757 0.934929
4555.44 0.983417 0.980372 14.2327 0.934989
4555.82 0.986484 0.984094 14.1815 0.93505
4556.19 0.992369 0.988083 14.1123 0.935111
4556.56 0.998829 0.992317 14.0436 0.935171
4556.93 1.00371 0.996686 14.0042 0.935232
4557.31 1.00691 1.00105 13.9684 0.935293
4557.68 1.00907 1.00527 13.9358 0.935354
4558.05 1.01085 1.00923 13.9067 0.935415
4558.43 1.01305 1.01287 13.877 0.935477
4558.8 1.01626 1.01618 13.8373 0.935538
4559.17 1.02054 1.01917 13.7979 0.9356
4559.55 1.0258 1.02183 13.7406 0.935662
4559.92 1.03117 1.02415 13.6745 0.935724
4560.29 1.03531 1.02607 13.6221 0.935786
4560.66 1.03751 1.02755 13.6112 0.935848
4561.04 1.03838 1.0286 13.6002 0.935911
4561.41 1.03861 1.02927 13.5945 0.935974
4561.78 1.03853 1.02964 13.5899 0.936037
4562.16 1.03836 1.02975 13.5899 0.936101
4562.53 1.03813 1.02963 13.5962 0.936165
4562.9 1.03778 1.02929 13.6026 0.936229
4563.28 1.0372 1.02874 13.6248 0.936293
4563.65 1.03628 1.02804 13.6471 0.936358
4564.02 1.03492 1.02727 13.6855 0.936423
4564.4 1.0332 1.02657 13.7349 0.936488
4564.77 1.03134 1.02604 13.7801 0.936554
4565.14 1.02957 1.02571 13.8068 0.93662
4565.52 1.02807 1.02557 13.8336 0.936686
4565.89 1.02699 1.02558 13.8449 0.936753
4566.27 1.02637 1.02567 13.8519 0.93682
4566.64 1.02618 1.0258 13.8559 0.936887
4567.01 1.02634 1.02595 13.8547 0.936955
4567.39 1.0267 1.0261 13.8536 0.937023
4567.76 1.02713 1.02621 13.8557 0.937092
4568.13 1.02754 1.0263 13.8578 0.937161
4568.51 1.02786 1.02642 13.8493 0.937231
4568.88 1.02819 1.02667 13.8321 0.937301
4569.26 1.02878 1.02716 13.8138 0.937372
4569.63 1.02982 1.02796 13.7897 0.937443
4570.0 1.03144 1.02908 13.7656 0.937514
4570.38 1.03366 1.03042 13.7484 0.937586
4570.75 1.03598 1.03181 13.7335 0.937658
4571.12 1.03763 1.03309 13.7289 0.937732
4571.5 1.03789 1.03415 13.7446 0.937805
4571.87 1.03608 1.03495 13.7603 0.937879
4572.25 1.03199 1.03557 13.8378 0.937954
4572.62 1.02747 1.03607 13.9209 0.938029
4573.0 1.02493 1.03646 13.9556 0.938105
4573.37 1.02467 1.0367 13.9456 0.938181
4573.74 1.02498 1.03666 13.9386 0.938258
4574.12 1.02459 1.03622 13.9548 0.938336
4574.49 1.02368 1.03534 13.9711 0.938414
4574.87 1.02269 1.03406 13.9874 0.938493
4575.24 1.02198 1.0325 14.0037 0.938572
4575.61 1.02191 1.0308 14.0147 0.938652
4575.99 1.02222 1.029 14.0134 0.938733
4576.36 1.02168 1.02711 14.0122 0.938814
4576.74 1.01931 1.02504 14.0538 0.938896
4577.11 1.0159 1.02271 14.1001 0.938979
4577.49 1.01279 1.02008 14.1382 0.939063
4577.86 1.01016 1.01719 14.1681 0.939147
4578.24 1.00699 1.01414 14.2003 0.939232
4578.61 1.00264 1.01103 14.2538 0.939318
4578.99 0.997696 1.00797 14.3076 0.939404
4579.36 0.993001 1.00502 14.3583 0.939491
4579.73 0.989635 1.00222 14.4077 0.939579
4580.11 0.988801 0.999602 14.436 0.939668
4580.48 0.990417 0.997191 14.4125 0.939757
4580.86 0.992175 0.995024 14.3891 0.939848
4581.23 0.991984 0.99312 14.4055 0.939939
4581.61 0.990185 0.99149 14.4267 0.940031
4581.98 0.987948 0.990135 14.4448 0.940123
4582.36 0.986084 0.989045 14.4597 0.940217
4582.73 0.985029 0.988201 14.4728 0.940311
4583.11 0.985071 0.987607 14.4683 0.940407
4583.48 0.986075 0.987285 14.4638 0.940503
4583.86 0.987811 0.987284 14.4462 0.9406
4584.23 0.989853 0.98767 14.4227 0.940698
4584.61 0.991665 0.988499 14.4048 0.940797
4584.98 0.993013 0.989777 14.4004 0.940897
4585.36 0.994197 0.991453 14.396 0.940997
4585.73 0.995532 0.993448 14.3727 0.941099
4586.11 0.9971 0.995674 14.3471 0.941202
4586.48 0.998899 0.998051 14.318 0.941305
4586.86 1.00089 1.00052 14.2851 0.94141
4587.24 1.00301 1.00304 14.2526 0.941515
4587.61 1.00515 1.00548 14.2229 0.941622
4587.99 1.00724 1.00772 14.1933 0.941729
4588.36 1.00917 1.00964 14.1737 0.941838
4588.74 1.01088 1.01116 14.1583 0.941947
4589.11 1.01234 1.01227 14.1457 0.942058
4589.49 1.01349 1.01306 14.1396 0.94217
4589.86 1.01421 1.0136 14.1334 0.942282
4590.24 1.01439 1.01395 14.1383 0.942396
4590.61 1.01412 1.01411 14.1443 0.942511
4590.99 1.01355 1.01407 14.1554 0.942627
4591.37 1.01276 1.01377 14.1715 0.942744
4591.74 1.01179 1.01319 14.1886 0.942862
4592.12 1.01064 1.01232 14.2145 0.942981
4592.49 1.00919 1.01118 14.2405 0.943102
4592.87 1.00736 1.00979 14.2782 0.943223
4593.24 1.00518 1.00818 14.3208 0.943346
4593.62 1.00281 1.0064 14.3566 0.94347
4594.0 1.00055 1.00449 14.3777 0.943595
4594.37 0.998974 1.00253 14.3988 0.943721
4594.75 0.998503 1.00061 14.4093 0.943848
4595.12 0.998643 0.998853 14.419 0.943977
4595.5 0.998623 0.997353 14.4364 0.944107
4595.88 0.997754 0.996164 14.4608 0.944238
4596.25 0.995424 0.995291 14.4915 0.94437
4596.63 0.991648 0.994672 14.5616 0.944504
4597.0 0.988092 0.994223 14.6322 0.944638
4597.38 0.986495 0.993887 14.6382 0.944775
4597.76 0.986772 0.993644 14.6219 0.944912
4598.13 0.987895 0.993514 14.608 0.94505
4598.51 0.989251 0.993557 14.5985 0.94519
4598.88 0.990858 0.993819 14.589 0.945331
4599.26 0.992735 0.994289 14.566 0.945473
4599.64 0.994676 0.994916 14.5425 0.945617
4600.01 0.996402 0.995651 14.5129 0.945761
4600.39 0.997451 0.996482 14.4787 0.945906
4600.77 0.997208 0.997452 14.4532 0.946052
4601.14 0.995976 0.998653 14.4682 0.9462
4601.52 0.996261 1.00018 14.4832 0.946348
4601.9 1.00044 1.00203 14.4077 0.946497
4602.27 1.00744 1.00414 14.3085 0.946647
4602.65 1.01459 1.00639 14.2277 0.946798
4603.03 1.0201 1.00872 14.1742 0.946949
4603.4 1.02337 1.01112 14.1212 0.947101
4603.78 1.02417 1.01368 14.1178 0.947254
4604.16 1.02349 1.0165 14.1143 0.947408
4604.53 1.02259 1.0196 14.1212 0.947562
4604.91 1.02232 1.02296 14.1346 0.947717
4605.29 1.02317 1.02652 14.1396 0.947872
4605.66 1.02539 1.0302 14.1163 0.948028
4606.04 1.02877 1.03396 14.093 0.948185
4606.42 1.03298 1.0378 14.0542 0.948342
4606.79 1.03744 1.04171 14.0126 0.948499
4607.17 1.0415 1.04565 13.9729 0.948657
4607.55 1.04486 1.04955 13.9356 0.948815
4607.92 1.0476 1.05333 13.899 0.948973
4608.3 1.04999 1.05693 13.87 0.949132
4608.68 1.05284 1.06033 13.8411 0.949291
4609.06 1.05699 1.06351 13.7868 0.94945
4609.43 1.06225 1.0665 13.7209 0.94961
4609.81 1.06779 1.06928 13.6562 0.949769
4610.19 1.07298 1.07189 13.5938 0.949929
4610.56 1.07756 1.07433 13.5318 0.950088
4610.94 1.08135 1.07658 13.4931 0.950248
4611.32 1.08438 1.07865 13.457 0.950408
4611.7 1.08675 1.08051 13.4342 0.950567
4612.07 1.08864 1.08212 13.4236 0.950727
4612.45 1.09032 1.08348 13.4152 0.950886
4612.83 1.09203 1.0846 13.4212 0.951046
4613.21 1.0939 1.08552 13.4271 0.951205
4613.58 1.096 1.08628 13.4068 0.951364
4613.96 1.0981 1.08691 13.3777 0.951522
4614.34 1.09983 1.08747 13.3526 0.951681
4614.72 1.10087 1.088 13.3342 0.951839
4615.09 1.10101 1.0885 13.316 0.951997
4615.47 1.10013 1.08896 13.3216 0.952154
4615.85 1.0985 1.08939 13.3277 0.952311
4616.23 1.0965 1.08982 13.3475 0.952467
4616.6 1.09474 1.09029 13.3766 0.952623
4616.98 1.09399 1.09086 13.3958 0.952779
4617.36 1.09471 1.09158 13.3785 0.952933
4617.74 1.0966 1.09241 13.3613 0.953088
4618.11 1.09924 1.09324 13.3451 0.953241
4618.49 1.10172 1.09394 13.3292 0.953394
4618.87 1.10296 1.09443 13.3261 0.953546
4619.25 1.10257 1.09473 13.3388 0.953698
4619.63 1.10088 1.09493 13.3525 0.953848
4620.0 1.09842 1.0952 13.3797 0.953998
4620.38 1.09628 1.09564 13.4071 0.954147
4620.76 1.09551 1.09623 13.4106 0.954295
4621.14 1.09588 1.09686 13.4033 0.954442
4621.52 1.09639 1.09733 13.4056 0.954589
4621.89 1.09645 1.0975 13.4296 0.954734
4622.27 1.09624 1.09735 13.4537 0.954878
4622.65 1.09598 1.09695 13.4703 0.955021
4623.03 1.09567 1.09647 13.4863 0.955163
4623.41 1.09527 1.09608 13.4974 0.955304
4623.79 1.09477 1.09586 13.5044 0.955444
4624.16 1.09413 1.09577 13.5104 0.955582
4624.54 1.0934 1.09571 13.511 0.955719
4624.92 1.09272 1.09553 13.5117 0.955855
4625.3 1.09225 1.09513 13.5145 0.95599
4625.68 1.0922 1.09449 13.5179 0.956123
4626.06 1.09279 1.09371 13.509 0.956255
4626.43 1.09383 1.09291 13.4827 0.956385
4626.81 1.09456 1.09222 13.4582 0.956514
4627.19 1.09439 1.09173 13.4793 0.956642
4627.57 1.09324 1.0914 13.5004 0.956768
4627.95 1.09125 1.09115 13.5498 0.956892
4628.33 1.08904 1.09086 13.6143 0.957015
4628.71 1.08759 1.09042 13.6551 0.957136
4629.09 1.08731 1.08973 13.6341 0.957256
4629.46 1.08763 1.08878 13.6131 0.957374
4629.84 1.08796 1.08762 13.5954 0.95749
4630.22 1.08822 1.08636 13.5781 0.957604
4630.6 1.08846 1.08507 13.5771 0.957716
4630.98 1.08853 1.08381 13.5906 0.957827
4631.36 1.08804 1.08255 13.6074 0.957936
4631.74 1.08668 1.08116 13.6423 0.958042
4632.12 1.08427 1.07953 13.6774 0.958147
4632.5 1.08076 1.07755 13.7135 0.95825
4632.87 1.07668 1.0752 13.7499 0.958351
4633.25 1.07286 1.07253 13.7731 0.95845
4633.63 1.07017 1.06969 13.7766 0.958546
4634.01 1.06954 1.0668 13.7797 0.958641
4634.39 1.07131 1.06392 13.768 0.958733
4634.77 1.07358 1.06106 13.7564 0.958823
4635.15 1.07402 1.05817 13.7806 0.958911
4635.53 1.07126 1.05513 13.8238 0.958997
4635.91 1.06458 1.05191 13.8911 0.95908
4636.29 1.0546 1.04851 14.02 0.959161
4636.67 1.04429 1.04501 14.1507 0.959239
4637.05 1.03634 1.04151 14.2454 0.959316
4637.42 1.03068 1.03815 14.3373 0.959389
4637.8 1.02635 1.03502 14.3992 0.95946
4638.18 1.02296 1.03216 14.4347 0.959529
4638.56 1.02063 1.02956 14.4671 0.959595
4638.94 1.01932 1.02713 14.4828 0.959659
4639.32 1.01871 1.02477 14.4985 0.95972
4639.7 1.0184 1.02236 14.5124 0.959778
4640.08 1.01789 1.01987 14.5258 0.959833
4640.46 1.01661 1.01736 14.5457 0.959886
4640.84 1.01442 1.01495 14.5743 0.959936
4641.22 1.01163 1.01271 14.6035 0.959983
4641.6 1.00855 1.01066 14.6413 0.960028
4641.98 1.00538 1.00871 14.6792 0.960069
4642.36 1.00227 1.0067 14.7215 0.960108
4642.74 0.999296 1.00448 14.7661 0.960143
4643.12 0.996516 1.00199 14.8102 0.960176
4643.5 0.993947 0.999301 14.8533 0.960205
4643.88 0.991572 0.996558 14.8966 0.960232
4644.26 0.989384 0.993935 14.9292 0.960255
4644.64 0.987456 0.991563 14.9614 0.960276
4645.02 0.985875 0.989493 14.9831 0.960293
4645.4 0.984595 0.987679 14.9971 0.960307
4645.78 0.983464 0.98605 15.009 0.960317
4646.16 0.982514 0.984559 15.0129 0.960325
4646.54 0.982182 0.983212 15.0168 0.960329
4646.92 0.98289 0.982084 15.0046 0.96033
4647.3 0.984597 0.9813 14.9894 0.960327
4647.68 0.987063 0.980959 14.9676 0.960322
4648.06 0.989619 0.981123 14.9383 0.960314
4648.44 0.991139 0.981791 14.9139 0.960302
4648.82 0.991011 0.982905 14.928 0.960288
4649.2 0.990182 0.984377 14.9422 0.960271
4649.58 0.989798 0.986129 14.9265 0.960252
4649.96 0.990261 0.988094 14.9004 0.960229
4650.34 0.99158 0.990231 14.8735 0.960204
4650.72 0.993682 0.992509 14.8452 0.960177
4651.1 0.996382 0.994911 14.817 0.960147
4651.48 0.999494 0.99744 14.7927 0.960114
4651.87 1.00286 1.00012 14.7684 0.960079
4652.25 1.00632 1.003 14.7407 0.960042
4652.63 1.00954 1.0061 14.7113 0.960003
4653.01 1.01213 1.00945 14.6773 0.959962
4653.39 1.01433 1.01298 14.6317 0.959918
4653.77 1.01762 1.01659 14.5864 0.959873
4654.15 1.02318 1.02018 14.5096 0.959826
4654.53 1.02995 1.02372 14.4307 0.959776
4654.91 1.03619 1.02719 14.372 0.959725
4655.29 1.04038 1.03063 14.3294 0.959672
4655.67 1.04117 1.03404 14.3088 0.959618
4656.05 1.03862 1.0374 14.3808 0.959562
4656.43 1.03596 1.04061 14.4534 0.959504
4656.82 1.03646 1.04359 14.3906 0.959445
4657.2 1.04066 1.0463 14.3006 0.959385
4657.58 1.04793 1.04872 14.2144 0.959323
4657.96 1.05667 1.05087 14.1323 0.95926
4658.34 1.0642 1.05274 14.0571 0.959196
4658.72 1.06831 1.05431 14.0346 0.959131
4659.1 1.06834 1.05547 14.0123 0.959064
4659.48 1.06417 1.05616 14.0462 0.958997
4659.87 1.05816 1.0563 14.0997 0.958929
4660.25 1.05392 1.05585 14.1388 0.958859
4660.63 1.05259 1.05481 14.1546 0.958789
4661.01 1.052 1.05321 14.1706 0.958719
4661.39 1.05021 1.05105 14.1975 0.958648
4661.77 1.04708 1.04834 14.2244 0.958576
4662.15 1.04288 1.04506 14.2812 0.958503
4662.53 1.03786 1.04119 14.3537 0.95843
4662.92 1.03228 1.03671 14.4369 0.958357
4663.3 1.02631 1.03165 14.5444 0.958284
4663.68 1.01998 1.0261 14.6532 0.95821
4664.06 1.01354 1.02023 14.7261 0.958136
4664.44 1.00831 1.01423 14.7973 0.958062
4664.82 1.00579 1.0083 14.8658 0.957987
4665.21 1.00508 1.00258 14.9325 0.957913
4665.59 1.00338 0.997164 15.0074 0.957839
4665.97 0.99884 0.992099 15.1094 0.957765
4666.35 0.991762 0.987422 15.2124 0.957692
4666.73 0.982868 0.983193 15.317 0.957618
4667.11 0.973898 0.979501 15.4227 0.957545
4667.5 0.966894 0.976447 15.4964 0.957473
4667.88 0.962354 0.974103 15.5394 0.957401
4668.26 0.959285 0.972507 15.5763 0.957329
4668.64 0.956937 0.971655 15.5802 0.957258
4669.02 0.955317 0.97151 15.584 0.957188
4669.41 0.954567 0.972001 15.5772 0.957119
4669.79 0.954928 0.973059 15.5677 0.95705
4670.17 0.956685 0.974631 15.5434 0.956982
4670.55 0.959938 0.976685 15.5009 0.956916
4670.93 0.964575 0.979212 15.4544 0.95685
4671.32 0.970272 0.982217 15.3661 0.956785
4671.7 0.976083 0.985691 15.2785 0.956722
4672.08 0.981053 0.989573 15.197 0.95666
4672.46 0.985227 0.993734 15.1182 0.956599
4672.85 0.989173 0.997994 15.0531 0.956539
4673.23 0.993112 1.00216 15.0096 0.956481
4673.61 0.996786 1.00603 14.9669 0.956425
4673.99 0.999942 1.00945 14.9414 0.95637
4674.38 1.00249 1.01234 14.916 0.956317
4674.76 1.00439 1.01466 14.8952 0.956265
4675.14 1.00589 1.01644 14.8766 0.956215
4675.52 1.00739 1.01772 14.8557 0.956167
4675.91 1.00913 1.01858 14.8299 0.956121
4676.29 1.01106 1.01908 14.8042 0.956077
4676.67 1.01304 1.01924 14.7924 0.956035
4677.05 1.01467 1.01907 14.7811 0.955995
4677.44 1.01547 1.01858 14.7825 0.955957
4677.82 1.01532 1.01784 14.7917 0.955922
4678.2 1.0143 1.01693 14.8041 0.955888
4678.58 1.01269 1.01597 14.8249 0.955857
4678.97 1.01101 1.01505 14.8458 0.955829
4679.35 1.00976 1.01422 14.8504 0.955803
4679.73 1.009 1.01344 14.8534 0.95578
4680.12 1.00864 1.01264 14.8552 0.955759
4680.5 1.00853 1.01175 14.856 0.955741
4680.88 1.00848 1.01076 14.8604 0.955726
4681.26 1.00835 1.00971 14.8783 0.955714
4681.65 1.0082 1.00875 14.8963 0.955705
4682.03 1.00812 1.00801 14.9136 0.955698
4682.41 1.00823 1.00764 14.9307 0.955695
4682.8 1.00871 1.0077 14.9312 0.955695
4683.18 1.00952 1.0082 14.9159 0.955698
4683.56 1.01045 1.00903 14.9008 0.955704
4683.95 1.01135 1.01006 14.8869 0.955714
4684.33 1.01228 1.01114 14.8729 0.955727
4684.71 1.01328 1.01218 14.8541 0.955744
4685.1 1.01439 1.01315 14.8342 0.955764
4685.48 1.01563 1.01406 14.8176 0.955787
4685.86 1.01698 1.01491 14.8046 0.955815
4686.25 1.01841 1.0157 14.7937 0.955846
4686.63 1.01989 1.01637 14.7977 0.95588
4687.01 1.02133 1.01689 14.8018 0.955919
4687.4 1.02266 1.01723 14.7859 0.955962
4687.78 1.02375 1.01744 14.7644 0.956008
4688.16 1.02444 1.01761 14.7506 0.956059
4688.55 1.02477 1.01784 14.7472 0.956114
4688.93 1.02496 1.01817 14.7438 0.956173
4689.31 1.02521 1.01862 14.7409 0.956236
4689.7 1.02555 1.01911 14.7379 0.956304
4690.08 1.02591 1.01958 14.7309 0.956376
4690.47 1.02596 1.01994 14.7225 0.956453
4690.85 1.0252 1.02016 14.7241 0.956534
4691.23 1.02397 1.02026 14.7414 0.956619
4691.62 1.02369 1.0203 14.7567 0.95671
4692.0 1.02532 1.02035 14.7281 0.956805
4692.39 1.02792 1.02046 14.6995 0.956905
4692.77 1.0302 1.02063 14.6876 0.95701
4693.15 1.03132 1.02083 14.6828 0.95712
4693.54 1.0307 1.02099 14.6909 0.957234
4693.92 1.02833 1.02102 14.7225 0.957354
4694.31 1.02501 1.02086 14.754 0.957479
4694.69 1.02173 1.02046 14.7773 0.95761
4695.07 1.0199 1.01982 14.8006 0.957745
4695.46 1.02083 1.01897 14.805 0.957886
4695.84 1.02335 1.01794 14.8001 0.958032
4696.23 1.0247 1.01676 14.8045 0.958184
4696.61 1.02333 1.01545 14.828 0.958341
4696.99 1.01962 1.01401 14.8516 0.958502
4697.38 1.01446 1.0124 14.899 0.95867
4697.76 1.01005 1.0106 14.9469 0.958842
4698.15 1.00866 1.00859 14.9859 0.959019
4698.53 1.00935 1.00638 15.02 0.959201
4698.92 1.00896 1.00403 15.0526 0.959387
4699.3 1.00615 1.00164 15.0817 0.959579
4699.69 1.00269 0.999331 15.111 0.959775
4700.07 1.00031 0.997174 15.1233 0.959976
4700.45 0.999133 0.995193 15.1349 0.960182
4700.84 0.998796 0.993362 15.1452 0.960392
4701.22 0.998547 0.991641 15.1546 0.960606
4701.61 0.997351 0.990005 15.1705 0.960825
4701.99 0.995127 0.988469 15.2032 0.961048
4702.38 0.993503 0.987087 15.236 0.961276
4702.76 0.993758 0.985918 15.2199 0.961507
4703.15 0.994679 0.985021 15.2009 0.961743
4703.53 0.994414 0.984455 15.2163 0.961983
4703.92 0.992734 0.984258 15.2546 0.962227
4704.3 0.990648 0.984432 15.2905 0.962474
4704.69 0.989164 0.98493 15.3194 0.962726
4705.07 0.989234 0.985664 15.3485 0.962981
4705.46 0.991373 0.986528 15.3045 0.96324
4705.84 0.993949 0.987469 15.255 0.963503
4706.23 0.994801 0.988506 15.239 0.963769
4706.61 0.994006 0.98971 15.2463 0.964039
4707.0 0.993408 0.991178 15.2482 0.964313
4707.38 0.99413 0.992984 15.2336 0.964589
4707.77 0.995794 0.995139 15.2191 0.964869
4708.15 0.997866 0.997588 15.1957 0.965153
4708.54 0.999887 1.00023 15.1716 0.965439
4708.92 1.00147 1.00294 15.1454 0.965729
4709.31 1.00305 1.00559 15.1178 0.966021
4709.69 1.00571 1.00807 15.0824 0.966317
4710.08 1.00963 1.01035 15.0226 0.966616
4710.46 1.01307 1.01249 14.963 0.966917
4710.85 1.01452 1.01456 14.9552 0.967222
4711.23 1.01484 1.01668 14.9527 0.967529
4711.62 1.01563 1.01894 14.9408 0.967839
4712.01 1.01782 1.02139 14.9218 0.968151
4712.39 1.0218 1.02408 14.8934 0.968466
4712.78 1.02717 1.02704 14.8343 0.968783
4713.16 1.03198 1.03032 14.7757 0.969103
4713.55 1.03458 1.03391 14.747 0.969425
4713.93 1.03611 1.0378 14.7215 0.96975
4714.32 1.03853 1.0419 14.6768 0.970076
4714.71 1.04244 1.04618 14.6177 0.970405
4715.09 1.04728 1.05057 14.5571 0.970736
4715.48 1.05255 1.05508 14.4909 0.971069
4715.86 1.05791 1.0597 14.4251 0.971404
4716.25 1.06313 1.06441 14.3591 0.97174
4716.63 1.06841 1.06914 14.2935 0.972079
4717.02 1.07406 1.07383 14.2244 0.972419
4717.41 1.07988 1.07842 14.153 0.972761
4717.79 1.08523 1.08291 14.0838 0.973105
4718.18 1.08983 1.08733 14.0202 0.97345
4718.56 1.09416 1.0917 13.9571 0.973797
4718.95 1.0987 1.09604 13.8999 0.974145
4719.34 1.10344 1.10025 13.8437 0.974494
4719.72 1.10819 1.10421 13.7957 0.974845
4720.11 1.11248 1.1078 13.7539 0.975197
4720.5 1.11563 1.11094 13.7214 0.97555
4720.88 1.1173 1.1136 13.7169 0.975905
4721.27 1.11784 1.11576 13.7123 0.97626
4721.65 1.11769 1.11741 13.7122 0.976616
4722.04 1.11729 1.11853 13.7126 0.976974
4722.43 1.1171 1.11906 13.7155 0.977332
4722.81 1.1171 1.11898 13.7203 0.97769
4723.2 1.11696 1.11826 13.7281 0.97805
4723.59 1.11625 1.1169 13.7447 0.97841
4723.97 1.11444 1.11496 13.7613 0.978771
4724.36 1.11117 1.11247 13.8042 0.979132
4724.75 1.10718 1.10949 13.8493 0.979494
4725.13 1.1035 1.10608 13.8843 0.979856
4725.52 1.10037 1.10234 13.9126 0.980218
4725.91 1.09747 1.09832 13.9438 0.980581
4726.29 1.0945 1.0941 13.9829 0.980944
4726.68 1.09135 1.08976 14.0221 0.981307
4727.07 1.08792 1.08536 14.0729 0.98167
4727.45 1.08417 1.08097 14.1247 0.982033
4727.84 1.08011 1.0767 14.1831 0.982395
4728.23 1.07546 1.07263 14.2459 0.982758
4728.61 1.06979 1.06885 14.3142 0.983121
4729.0 1.06329 1.06541 14.3957 0.983483
4729.39 1.05727 1.06236 14.4779 0.983845
4729.77 1.05286 1.05973 14.5208 0.984206
4730.16 1.04996 1.05758 14.5626 0.984567
4730.55 1.04812 1.05597 14.5916 0.984928
4730.93 1.04671 1.05496 14.6134 0.985288
4731.32 1.04501 1.05455 14.6387 0.985647
4731.71 1.04299 1.05471 14.6716 0.986006
4732.1 1.04179 1.05536 14.7047 0.986363
4732.48 1.04229 1.05638 14.6862 0.98672
4732.87 1.04394 1.05769 14.6671 0.987076
4733.26 1.04586 1.05923 14.6444 0.987431
4733.64 1.04769 1.061 14.6199 0.987785
4734.03 1.04946 1.06306 14.5937 0.988137
4734.42 1.05128 1.06548 14.5644 0.988489
4734.81 1.05344 1.0683 14.5352 0.988839
4735.19 1.05619 1.07146 14.5009 0.989188
4735.58 1.05952 1.07481 14.4668 0.989535
4735.97 1.06334 1.07815 14.4121 0.989881
4736.36 1.06775 1.0813 14.3487 0.990226
4736.74 1.0729 1.08416 14.283 0.990569
4737.13 1.07862 1.08681 14.2134 0.99091
4737.52 1.0843 1.08944 14.1446 0.99125
4737.91 1.08938 1.09221 14.0846 0.991588
4738.29 1.09349 1.09524 14.0248 0.991924
4738.68 1.09642 1.09846 13.9804 0.992258
4739.07 1.09865 1.10173 13.9417 0.99259
4739.46 1.10104 1.10484 13.901 0.99292
4739.85 1.10404 1.10768 13.8572 0.993247
4740.23 1.10753 1.1102 13.8138 0.993573
4740.62 1.11139 1.11248 13.7718 0.993897
4741.01 1.11548 1.11459 13.73 0.994218
4741.4 1.11966 1.11663 13.6887 0.994536
4741.79 1.12368 1.11868 13.6477 0.994853
4742.17 1.12722 1.12077 13.6081 0.995167
4742.56 1.1299 1.12293 13.5703 0.995478
4742.95 1.13119 1.12516 13.5387 0.995786
4743.34 1.13117 1.12741 13.5489 0.996092
4743.73 1.13156 1.12963 13.5591 0.996395
4744.11 1.13408 1.13174 13.5155 0.996696
4744.5 1.13831 1.13367 13.4594 0.996993
4744.89 1.14292 1.13541 13.4109 0.997288
4745.28 1.14673 1.13701 13.3703 0.997579
4745.67 1.14872 1.13854 13.3396 0.997867
4746.05 1.14845 1.14006 13.3563 0.998153
4746.44 1.14689 1.14158 13.373 0.998435
4746.83 1.14517 1.14304 13.3821 0.998714
4747.22 1.14394 1.14431 13.3899 0.99899
4747.61 1.1437 1.14521 13.3886 0.999264
4748.0 1.14465 1.14568 13.3795 0.999534
4748.39 1.14673 1.14572 13.3686 0.999801
4748.77 1.14964 1.14539 13.3511 1.00007
4749.16 1.15251 1.14481 13.3337 1.00033
4749.55 1.15436 1.14406 13.3211 1.00058
4749.94 1.15382 1.14315 13.3091 1.00084
4750.33 1.14959 1.14204 13.3502 1.00109
4750.72 1.14341 1.1407 13.4295 1.00134
4751.11 1.13941 1.13911 13.488 1.00159
4751.49 1.13951 1.13732 13.4891 1.00183
4751.88 1.14145 1.13544 13.4902 1.00207
4752.27 1.14273 1.1336 13.4991 1.00231
4752.66 1.14194 1.13186 13.5084 1.00255
4753.05 1.13811 1.13023 13.5424 1.00278
4753.44 1.13265 1.12865 13.5904 1.00301
4753.83 1.12856 1.12699 13.6252 1.00323
4754.22 1.12725 1.12517 13.6323 1.00346
4754.61 1.12759 1.12322 13.6393 1.00368
4754.99 1.12829 1.12122 13.6437 1.0039
4755.38 1.12844 1.11932 13.6481 1.00411
4755.77 1.12727 1.11764 13.665 1.00432
4756.16 1.12463 1.11623 13.6872 1.00453
4756.55 1.12079 1.11509 13.7163 1.00474
4756.94 1.11644 1.11413 13.7564 1.00494
4757.33 1.11292 1.11324 13.7935 1.00515
4757.72 1.1113 1.11234 13.7899 1.00534
4758.11 1.11176 1.11133 13.7863 1.00554
4758.5 1.11414 1.11016 13.7728 1.00573
4758.89 1.11684 1.10879 13.7563 1.00592
4759.28 1.11757 1.10725 13.7608 1.00611
4759.67 1.11517 1.10557 13.7911 1.00629
4760.05 1.10976 1.10379 13.829 1.00648
4760.44 1.10229 1.10195 13.9134 1.00666
4760.83 1.09585 1.10001 13.9986 1.00683
4761.22 1.09324 1.09792 14.0328 1.00701
4761.61 1.09311 1.09566 14.0565 1.00718
4762.0 1.09249 1.09325 14.0807 1.00735
4762.39 1.0905 1.09075 14.1054 1.00751
4762.78 1.0883 1.0883 14.1278 1.00768
4763.17 1.08678 1.08602 14.1417 1.00784
4763.56 1.0861 1.08395 14.1556 1.008
4763.95 1.08613 1.08209 14.1625 1.00815
4764.34 1.08547 1.08041 14.1686 1.0083
4764.73 1.08248 1.0789 14.1984 1.00846
4765.12 1.0777 1.0776 14.2448 1.0086
4765.51 1.07342 1.07659 14.2858 1.00875
4765.9 1.07111 1.07599 14.3125 1.00889
4766.29 1.0708 1.07588 14.3392 1.00903
4766.68 1.07227 1.07629 14.3352 1.00917
4767.07 1.07494 1.07721 14.3304 1.0093
4767.46 1.07814 1.07858 14.305 1.00944
4767.85 1.08127 1.08031 14.2694 1.00957
4768.24 1.08376 1.0823 14.2348 1.0097
4768.63 1.08546 1.08452 14.2019 1.00982
4769.02 1.08681 1.087 14.1689 1.00994
4769.41 1.08826 1.08982 14.1331 1.01006
4769.8 1.09024 1.09304 14.0973 1.01018
4770.19 1.09309 1.09668 14.055 1.0103
4770.58 1.0969 1.10061 14.0106 1.01041
4770.97 1.10156 1.10468 13.9626 1.01052
4771.36 1.10674 1.10872 13.9101 1.01063
4771.75 1.11186 1.11262 13.8588 1.01073
4772.14 1.11653 1.1164 13.8142 1.01084
4772.53 1.12086 1.1201 13.7698 1.01094
4772.92 1.12505 1.12378 13.716 1.01104
4773.31 1.12913 1.12743 13.6605 1.01113
4773.71 1.13307 1.13104 13.6165 1.01123
4774.1 1.13676 1.13449 13.5827 1.01132
4774.49 1.13999 1.13767 13.5557 1.01141
4774.88 1.14254 1.14048 13.5523 1.01149
4775.27 1.14414 1.14283 13.5488 1.01158
4775.66 1.14465 1.1447 13.5511 1.01166
4776.05 1.14468 1.14616 13.5538 1.01174
4776.44 1.14501 1.14731 13.5432 1.01182
4776.83 1.14587 1.1483 13.5241 1.01189
4777.22 1.14702 1.14918 13.5062 1.01196
4777.61 1.14822 1.14993 13.4908 1.01204
4778.0 1.14923 1.1504 13.4756 1.0121
4778.39 1.14984 1.15043 13.4753 1.01217
4778.79 1.1501 1.14987 13.4749 1.01223
4779.18 1.15002 1.1487 13.4911 1.0123
4779.57 1.14931 1.14702 13.5143 1.01235
4779.96 1.14747 1.14501 13.5447 1.01241
4780.35 1.14436 1.14286 13.5859 1.01247
4780.74 1.14027 1.14071 13.6288 1.01252
4781.13 1.13553 1.13861 13.6848 1.01257
4781.52 1.13056 1.13654 13.7412 1.01262
4781.91 1.12576 1.13441 13.8045 1.01267
4782.31 1.12142 1.1322 13.8699 1.01271
4782.7 1.11772 1.12987 13.9179 1.01275
4783.09 1.11486 1.12748 13.9485 1.01279
4783.48 1.11297 1.12514 13.9747 1.01283
4783.87 1.11204 1.12301 13.9834 1.01287
4784.26 1.1116 1.12119 13.9921 1.0129
4784.65 1.11122 1.11971 13.998 1.01293
4785.05 1.11072 1.11851 14.0035 1.01296
4785.44 1.11006 1.11747 14.0106 1.01299
4785.83 1.10964 1.11648 14.0186 1.01301
4786.22 1.11015 1.11555 14.0166 1.01304
4786.61 1.11182 1.11479 13.9915 1.01306
4787.0 1.11407 1.11441 13.9666 1.01308
4787.39 1.11632 1.11461 13.9436 1.01309
4787.79 1.11847 1.11547 13.9207 1.01311
4788.18 1.12052 1.11694 13.9035 1.01312
4788.57 1.12247 1.11888 13.8887 1.01313
4788.96 1.12437 1.12113 13.8781 1.01314
4789.35 1.12617 1.1236 13.8733 1.01315
4789.75 1.12778 1.12629 13.8668 1.01315
4790.14 1.12919 1.12927 13.8472 1.01316
4790.53 1.13076 1.13258 13.8276 1.01316
4790.92 1.13289 1.13623 13.7834 1.01316
4791.31 1.13583 1.14014 13.734 1.01315
4791.71 1.13977 1.14417 13.6788 1.01315
4792.1 1.14468 1.14819 13.6185 1.01314
4792.49 1.15032 1.1521 13.5588 1.01314
4792.88 1.15626 1.15583 13.5003 1.01313
4793.27 1.16176 1.15937 13.4422 1.01311
4793.67 1.16616 1.16269 13.4079 1.0131
4794.06 1.16964 1.16577 13.3754 1.01308
4794.45 1.17262 1.16857 13.3527 1.01307
4794.84 1.17521 1.17107 13.3355 1.01305
4795.24 1.17732 1.17319 13.3218 1.01302
4795.63 1.17887 1.17491 13.3149 1.013
4796.02 1.17979 1.17621 13.3084 1.01298
4796.41 1.18007 1.17711 13.3083 1.01295
4796.8 1.17989 1.17767 13.3082 1.01292
4797.2 1.17947 1.17798 13.303 1.01289
4797.59 1.17924 1.17812 13.2961 1.01286
4797.98 1.17971 1.17813 13.2906 1.01283
4798.37 1.18082 1.17804 13.2867 1.01279
4798.77 1.1819 1.17787 13.2847 1.01275
4799.16 1.18229 1.17761 13.2916 1.01272
4799.55 1.18152 1.17726 13.2986 1.01268
4799.95 1.17937 1.17677 13.3222 1.01264
4800.34 1.17669 1.1761 13.3481 1.01259
4800.73 1.17473 1.17524 13.3676 1.01255
4801.12 1.17386 1.17421 13.3824 1.01251
4801.52 1.17377 1.1731 13.3945 1.01246
4801.91 1.17403 1.17203 13.4 1.01241
4802.3 1.17396 1.17106 13.4054 1.01236
4802.7 1.17298 1.17018 13.4118 1.01231
4803.09 1.17087 1.16933 13.4181 1.01226
4803.48 1.16761 1.16842 13.4342 1.01221
4803.87 1.16438 1.1674 13.4541 1.01216
4804.27 1.163 1.16626 13.4629 1.0121
4804.66 1.16385 1.16507 13.4565 1.01205
4805.05 1.16559 1.16387 13.4515 1.01199
4805.45 1.16697 1.16275 13.4552 1.01194
4805.84 1.16731 1.16176 13.4589 1.01188
4806.23 1.16608 1.16092 13.4782 1.01182
4806.63 1.16338 1.1602 13.5004 1.01176
4807.02 1.15956 1.15955 13.5398 1.0117
4807.41 1.15559 1.15893 13.5932 1.01164
4807.81 1.15295 1.15836 13.6332 1.01158
4808.2 1.15231 1.15788 13.6363 1.01152
4808.59 1.15277 1.15758 13.6394 1.01146
4808.99 1.15335 1.15754 13.6344 1.01139
4809.38 1.15364 1.15776 13.6293 1.01133
4809.77 1.15337 1.1582 13.6236 1.01127
4810.17 1.15268 1.15876 13.6176 1.0112
4810.56 1.15195 1.15938 13.6145 1.01114
4810.95 1.1517 1.16002 13.6155 1.01107
4811.35 1.1526 1.16071 13.6138 1.01101
4811.74 1.15493 1.16151 13.5926 1.01094
4812.14 1.15797 1.16251 13.5715 1.01087
4812.53 1.16085 1.16377 13.5562 1.01081
4812.92 1.16328 1.16532 13.5422 1.01074
4813.32 1.16523 1.16712 13.5288 1.01067
4813.71 1.16698 1.16911 13.5161 1.01061
4814.1 1.16908 1.17123 13.4964 1.01054
4814.5 1.17184 1.17341 13.4573 1.01047
4814.89 1.17505 1.17557 13.4184 1.01041
4815.29 1.17838 1.17766 13.3903 1.01034
4815.68 1.1813 1.17966 13.3625 1.01027
4816.07 1.18323 1.18154 13.3469 1.01021
4816.47 1.18411 1.18327 13.3366 1.01014
4816.86 1.18418 1.18483 13.3313 1.01007
4817.26 1.18397 1.18617 13.3334 1.01001
4817.65 1.18433 1.18723 13.3335 1.00994
4818.04 1.18568 1.18793 13.3206 1.00988
4818.44 1.18719 1.18821 13.3078 1.00981
4818.83 1.18796 1.18803 13.3056 1.00975
4819.23 1.18815 1.18736 13.3054 1.00968
4819.62 1.18834 1.18619 13.3042 1.00962
4820.02 1.18876 1.18456 13.3023 1.00956
4820.41 1.18937 1.18254 13.3005 1.00949
4820.8 1.18981 1.18027 13.2989 1.00943
4821.2 1.18922 1.17788 13.2972 1.00937
4821.59 1.18695 1.17549 13.3379 1.00931
4821.99 1.18344 1.17315 13.3788 1.00925
4822.38 1.17938 1.17082 13.4277 1.00919
4822.78 1.17517 1.16842 13.4798 1.00913
4823.17 1.17104 1.16588 13.5321 1.00907
4823.57 1.16715 1.16322 13.5846 1.00902
4823.96 1.16358 1.16053 13.6363 1.00896
4824.36 1.16038 1.15793 13.6823 1.00891
4824.75 1.15748 1.15552 13.7285 1.00885
4825.15 1.15482 1.15335 13.7495 1.0088
4825.54 1.15255 1.15136 13.767 1.00875
4825.94 1.15084 1.1495 13.7833 1.0087
4826.33 1.14955 1.14771 13.7989 1.00865
4826.72 1.14828 1.146 13.8166 1.0086
4827.12 1.14669 1.14437 13.8392 1.00855
4827.51 1.14459 1.14286 13.8623 1.0085
4827.91 1.14192 1.14149 13.8981 1.00846
4828.3 1.1391 1.14028 13.934 1.00841
4828.7 1.13663 1.13928 13.9596 1.00837
4829.09 1.13496 1.1385 13.9819 1.00833
4829.49 1.13451 1.13799 13.9923 1.00829
4829.89 1.13529 1.13772 13.9898 1.00825
4830.28 1.13689 1.13764 13.985 1.00822
4830.68 1.1389 1.13764 13.9711 1.00818
4831.07 1.14079 1.13758 13.9573 1.00815
4831.47 1.14218 1.13739 13.9456 1.00811
4831.86 1.14328 1.13705 13.934 1.00808
4832.26 1.14442 1.13668 13.9271 1.00805
4832.65 1.14531 1.13641 13.9227 1.00803
4833.05 1.14521 1.13639 13.929 1.008
4833.44 1.14384 1.13665 13.9534 1.00798
4833.84 1.1416 1.13711 13.979 1.00796
4834.23 1.13898 1.13757 14.015 1.00794
4834.63 1.13666 1.13786 14.0512 1.00792
4835.03 1.13525 1.13784 14.0716 1.0079
4835.42 1.13435 1.13745 14.0886 1.00789
4835.82 1.13323 1.13677 14.0988 1.00788
4836.21 1.13191 1.13588 14.1035 1.00787
4836.61 1.13111 1.13491 14.1054 1.00786
4837.0 1.13121 1.13395 14.0999 1.00785
4837.4 1.13197 1.13305 14.0944 1.00785
4837.8 1.13301 1.13221 14.0885 1.00785
4838.19 1.13363 1.13136 14.0825 1.00785
4838.59 1.13313 1.1305 14.0956 1.00785
4838.98 1.13179 1.12962 14.1158 1.00786
4839.38 1.13039 1.12876 14.1378 1.00786
4839.77 1.12935 1.12797 14.1617 1.00787
4840.17 1.12865 1.12734 14.1847 1.00789
4840.57 1.12822 1.12689 14.2025 1.0079
4840.96 1.12794 1.12662 14.2203 1.00792
4841.36 1.12768 1.12652 14.2315 1.00794
4841.75 1.12732 1.12655 14.242 1.00796
4842.15 1.12675 1.12662 14.2515 1.00799
4842.55 1.12585 1.12662 14.2603 1.00801
4842.94 1.12448 1.12651 14.2732 1.00804
4843.34 1.12278 1.12628 14.2934 1.00808
4843.74 1.12129 1.126 14.3131 1.00811
4844.13 1.12047 1.12583 14.3273 1.00815
4844.53 1.12043 1.12592 14.3415 1.00819
4844.92 1.12115 1.12633 14.3443 1.00824
4845.32 1.12209 1.12707 14.3446 1.00829
4845.72 1.12252 1.12798 14.3329 1.00834
4846.11 1.12246 1.12889 14.3113 1.00839
4846.51 1.12261 1.12961 14.2858 1.00845
4846.91 1.12347 1.1301 14.2501 1.00851
4847.3 1.12518 1.13031 14.2146 1.00857
4847.7 1.12773 1.13027 14.1836 1.00863
4848.1 1.1307 1.13001 14.1527 1.0087
4848.49 1.1335 1.12953 14.1351 1.00877
4848.89 1.13509 1.1288 14.1221 1.00885
4849.29 1.1342 1.12783 14.1432 1.00892
4849.68 1.13075 1.12659 14.2026 1.009
4850.08 1.12587 1.12503 14.2633 1.00908
4850.48 1.12055 1.12307 14.3278 1.00917
4850.87 1.11533 1.12063 14.3927 1.00925
4851.27 1.11059 1.11763 14.456 1.00934
4851.67 1.10642 1.11409 14.5196 1.00944
4852.07 1.1028 1.11008 14.5764 1.00953
4852.46 1.09956 1.10572 14.6299 1.00963
4852.86 1.09649 1.10111 14.685 1.00973
4853.26 1.09334 1.09627 14.7423 1.00983
4853.65 1.08987 1.09116 14.8013 1.00994
4854.05 1.08585 1.08572 14.87 1.01004
4854.45 1.08103 1.07989 14.9392 1.01015
4854.85 1.0752 1.07367 15.0196 1.01026
4855.24 1.0683 1.06712 15.1023 1.01038
4855.64 1.06038 1.06035 15.1954 1.01049
4856.04 1.05224 1.05344 15.296 1.01061
4856.43 1.04518 1.04645 15.39 1.01073
4856.83 1.03959 1.03939 15.4699 1.01085
4857.23 1.03438 1.03224 15.5513 1.01098
4857.63 1.02858 1.02501 15.6447 1.0111
4858.02 1.02202 1.0178 15.7389 1.01123
4858.42 1.01478 1.01075 15.8432 1.01136
4858.82 1.00772 1.00408 15.9508 1.0115
4859.22 1.00198 0.997977 16.0456 1.01163
4859.61 0.997585 0.992545 16.1297 1.01176
4860.01 0.993609 0.987837 16.2109 1.0119
4860.41 0.989595 0.983828 16.2837 1.01204
4860.81 0.985997 0.980509 16.3565 1.01218
4861.2 0.983284 0.977928 16.4003 1.01233
4861.6 0.98162 0.976174 16.4443 1.01247
4862.0 0.981034 0.975314 16.4615 1.01262
4862.4 0.980984 0.97536 16.47 1.01276
4862.8 0.980682 0.976211 16.4781 1.01291
4863.19 0.980223 0.977654 16.4857 1.01306
4863.59 0.980603 0.97948 16.4854 1.01321
4863.99 0.982417 0.981588 16.4582 1.01337
4864.39 0.985343 0.984021 16.4312 1.01352
4864.79 0.988944 0.986942 16.3844 1.01368
4865.18 0.992774 0.99052 16.3371 1.01384
4865.58 0.996439 0.994752 16.282 1.014
4865.98 1.00014 0.99942 16.2238 1.01416
4866.38 1.00439 1.00417 16.1518 1.01432
4866.78 1.00925 1.00861 16.0629 1.01448
4867.17 1.01419 1.01249 15.978 1.01464
4867.57 1.01877 1.01576 15.9075 1.01481
4867.97 1.02272 1.0185 15.8375 1.01497
4868.37 1.02587 1.02089 15.7869 1.01514
4868.77 1.02821 1.0231 15.738 1.01531
4869.17 1.02983 1.02524 15.7081 1.01547
4869.56 1.03104 1.02731 15.6874 1.01564
4869.96 1.03233 1.0293 15.6687 1.01581
4870.36 1.03382 1.03115 15.6528 1.01599
4870.76 1.03522 1.03284 15.6376 1.01616
4871.16 1.0363 1.03447 15.6272 1.01633
4871.56 1.03707 1.03618 15.6167 1.0165
4871.96 1.03763 1.03816 15.6081 1.01668
4872.35 1.03829 1.04051 15.5997 1.01685
4872.75 1.03945 1.0432 15.5847 1.01703
4873.15 1.04153 1.0461 15.566 1.0172
4873.55 1.04497 1.04902 15.5292 1.01738
4873.95 1.04975 1.05187 15.4627 1.01756
4874.35 1.05526 1.05468 15.3955 1.01773
4874.75 1.0609 1.05763 15.3203 1.01791
4875.15 1.06632 1.06096 15.2456 1.01809
4875.54 1.07128 1.06487 15.1738 1.01827
4875.94 1.07601 1.0694 15.1029 1.01845
4876.34 1.08088 1.07448 15.0396 1.01863
4876.74 1.08574 1.07992 14.9814 1.01881
4877.14 1.09005 1.08542 14.9276 1.01899
4877.54 1.09358 1.09071 14.8819 1.01917
4877.94 1.09659 1.09559 14.8374 1.01935
4878.34 1.09938 1.09993 14.803 1.01953
4878.74 1.1022 1.10374 14.7688 1.01971
4879.14 1.1052 1.10709 14.7443 1.01989
4879.53 1.1082 1.11008 14.7217 1.02007
4879.93 1.11084 1.11267 14.7109 1.02025
4880.33 1.11276 1.1148 14.7085 1.02043
4880.73 1.11359 1.11631 14.71 1.02061
4881.13 1.11325 1.11712 14.7196 1.02079
4881.53 1.11212 1.11721 14.7296 1.02097
4881.93 1.11063 1.1167 14.7442 1.02114
4882.33 1.10928 1.11571 14.7588 1.02132
4882.73 1.10846 1.11435 14.7686 1.0215
4883.13 1.1078 1.11267 14.7774 1.02168
4883.53 1.10664 1.11064 14.796 1.02186
4883.93 1.10466 1.10824 14.822 1.02204
4884.33 1.10183 1.10547 14.853 1.02221
4884.73 1.09825 1.10235 14.8948 1.02239
4885.13 1.09418 1.09898 14.9376 1.02257
4885.53 1.08995 1.0955 14.991 1.02274
4885.93 1.08601 1.09202 15.0447 1.02292
4886.33 1.0827 1.08868 15.0944 1.02309
4886.73 1.07961 1.08562 15.1434 1.02327
4887.13 1.07608 1.08293 15.1889 1.02344
4887.53 1.07241 1.08076 15.2319 1.02361
4887.93 1.06974 1.0792 15.2628 1.02378
4888.33 1.06888 1.07834 15.2673 1.02395
4888.73 1.07015 1.07823 15.2686 1.02412
4889.13 1.07347 1.0789 15.2246 1.02429
4889.53 1.07769 1.08036 15.1808 1.02446
4889.93 1.08159 1.08256 15.1444 1.02463
4890.33 1.08514 1.08546 15.1097 1.02479
4890.73 1.08882 1.08896 15.0582 1.02496
4891.13 1.09291 1.09304 14.994 1.02512
4891.53 1.09758 1.09772 14.9237 1.02528
4891.93 1.10293 1.10306 14.8398 1.02545
4892.33 1.10899 1.10911 14.7555 1.02561
4892.73 1.11571 1.11582 14.6573 1.02576
4893.13 1.12284 1.12301 14.5601 1.02592
4893.53 1.13016 1.13049 14.4686 1.02608
4893.93 1.13764 1.13806 14.3788 1.02623
4894.33 1.14535 1.14562 14.2926 1.02639
4894.73 1.15314 1.15307 14.2091 1.02654
4895.13 1.16067 1.16034 14.1301 1.02669
4895.53 1.16758 1.16731 14.0594 1.02684
4895.93 1.17349 1.17381 13.9916 1.02699
4896.33 1.17829 1.17975 13.9515 1.02714
4896.73 1.18273 1.1851 13.9116 1.02728
4897.13 1.18753 1.1899 13.8578 1.02743
4897.53 1.19235 1.19423 13.8015 1.02757
4897.93 1.19643 1.19809 13.7597 1.02771
4898.33 1.19925 1.20138 13.7282 1.02785
4898.74 1.20053 1.20394 13.7078 1.02798
4899.14 1.20027 1.20563 13.7089 1.02812
4899.54 1.19894 1.20639 13.7126 1.02825
4899.94 1.19703 1.20634 13.7406 1.02838
4900.34 1.19508 1.20569 13.7686 1.02851
4900.74 1.19358 1.20471 13.7938 1.02864
4901.14 1.19253 1.20362 13.8185 1.02877
4901.54 1.19176 1.20256 13.8414 1.02889
4901.94 1.19106 1.20152 13.8632 1.02902
4902.34 1.19015 1.20041 13.8839 1.02914
4902.75 1.18887 1.19915 13.9027 1.02926
4903.15 1.18723 1.19773 13.9224 1.02938
4903.55 1.18532 1.19621 13.9479 1.0295
4903.95 1.18349 1.19471 13.9736 1.02962
4904.35 1.18208 1.19332 13.9901 1.02973
4904.75 1.18097 1.19206 14.0053 1.02985
4905.15 1.17993 1.19084 14.0185 1.02996
4905.55 1.17868 1.18952 14.0305 1.03007
4905.96 1.17699 1.18798 14.0461 1.03018
4906.36 1.17518 1.1862 14.0675 1.03029
4906.76 1.17446 1.18427 14.0818 1.03039
4907.16 1.17544 1.18234 14.0545 1.0305
4907.56 1.17708 1.18059 14.0274 1.0306
4907.96 1.17823 1.17915 14.0189 1.03071
4908.36 1.17837 1.17801 14.0124 1.03081
4908.77 1.17728 1.17711 14.0226 1.03091
4909.17 1.17535 1.17632 14.0414 1.03101
4909.57 1.17339 1.17553 14.0576 1.03111
4909.97 1.17173 1.17464 14.0701 1.03121
4910.37 1.17007 1.17364 14.0824 1.0313
4910.77 1.16838 1.17253 14.0933 1.0314
4911.18 1.16731 1.17134 14.1043 1.03149
4911.58 1.16747 1.17006 14.1037 1.03158
4911.98 1.16883 1.16866 14.1025 1.03168
4912.38 1.17104 1.16705 14.0893 1.03177
4912.78 1.17263 1.16516 14.0711 1.03186
4913.19 1.17155 1.16298 14.093 1.03194
4913.59 1.16746 1.16048 14.1618 1.03203
4913.99 1.16196 1.15766 14.2278 1.03212
4914.39 1.15637 1.15452 14.2825 1.0322
4914.79 1.15119 1.15103 14.3374 1.03229
4915.2 1.14674 1.14712 14.3806 1.03237
4915.6 1.14291 1.1428 14.4238 1.03245
4916.0 1.13953 1.13806 14.4597 1.03253
4916.4 1.13669 1.13295 14.4932 1.03262
4916.81 1.13457 1.12763 14.5241 1.0327
4917.21 1.1326 1.12222 14.5525 1.03277
4917.61 1.12947 1.11687 14.5904 1.03285
4918.01 1.12445 1.1117 14.6537 1.03293
4918.41 1.11785 1.10681 14.7186 1.03301
4918.82 1.11035 1.10224 14.8138 1.03308
4919.22 1.10356 1.09807 14.9098 1.03316
4919.62 1.09901 1.09434 14.9917 1.03323
4920.02 1.09605 1.09111 15.0704 1.0333
4920.43 1.0931 1.08844 15.1334 1.03338
4920.83 1.08985 1.0864 15.1841 1.03345
4921.23 1.08699 1.08508 15.2215 1.03352
4921.63 1.08523 1.08462 15.2316 1.03359
4922.04 1.08516 1.08511 15.2369 1.03366
4922.44 1.08713 1.08664 15.1962 1.03373
4922.84 1.09082 1.08923 15.1557 1.0338
4923.25 1.09576 1.0928 15.0938 1.03386
4923.65 1.10142 1.09727 15.0287 1.03393
4924.05 1.1073 1.10251 14.9513 1.034
4924.45 1.11332 1.10843 14.8667 1.03406
4924.86 1.11973 1.11495 14.7769 1.03413
4925.26 1.12678 1.12199 14.6786 1.0342
4925.66 1.13477 1.12944 14.5796 1.03426
4926.07 1.14364 1.13715 14.4729 1.03432
4926.47 1.15233 1.14493 14.3673 1.03439
4926.87 1.15988 1.15257 14.2811 1.03445
4927.28 1.16637 1.15986 14.1971 1.03451
4927.68 1.17222 1.16666 14.1261 1.03458
4928.08 1.17775 1.17293 14.061 1.03464
4928.49 1.18327 1.17864 14.003 1.0347
4928.89 1.18894 1.18379 13.9532 1.03476
4929.29 1.19477 1.18833 13.9033 1.03482
4929.7 1.20041 1.19212 13.8523 1.03488
4930.1 1.20479 1.19506 13.8016 1.03494
4930.5 1.20705 1.19707 13.7842 1.035
4930.91 1.20763 1.1982 13.7669 1.03506
4931.31 1.20725 1.19858 13.7601 1.03512
4931.71 1.20656 1.19834 13.7564 1.03518
4932.12 1.20614 1.19752 13.7547 1.03524
4932.52 1.20589 1.19604 13.7546 1.0353
4932.92 1.20516 1.19378 13.7657 1.03535
4933.33 1.20336 1.19067 13.8024 1.03541
4933.73 1.20021 1.18679 13.8417 1.03547
4934.13 1.19556 1.18239 13.9101 1.03553
4934.54 1.18985 1.17783 13.979 1.03558
4934.94 1.1836 1.17344 14.0566 1.03564
4935.35 1.17754 1.16943 14.1364 1.0357
4935.75 1.17236 1.16592 14.1928 1.03576
4936.15 1.168 1.16289 14.2346 1.03581
4936.56 1.16382 1.16034 14.28 1.03587
4936.96 1.15962 1.15826 14.3312 1.03593
4937.36 1.15589 1.15669 14.3773 1.03598
4937.77 1.15311 1.15565 14.3947 1.03604
4938.17 1.1517 1.15515 14.4121 1.0361
4938.58 1.15204 1.15515 14.3876 1.03616
4938.98 1.15434 1.15567 14.3601 1.03621
4939.38 1.15862 1.15674 14.3093 1.03627
4939.79 1.16378 1.15842 14.249 1.03633
4940.19 1.16813 1.1608 14.2026 1.03638
4940.6 1.17101 1.16387 14.1712 1.03644
4941.0 1.17282 1.16756 14.142 1.0365
4941.41 1.17419 1.17171 14.119 1.03656
4941.81 1.176 1.17618 14.0958 1.03662
4942.21 1.17901 1.18086 14.0644 1.03667
4942.62 1.18334 1.18577 14.033 1.03673
4943.02 1.18892 1.19094 13.9699 1.03679
4943.43 1.1953 1.19644 13.8994 1.03685
4943.83 1.20191 1.2022 13.83 1.03691
4944.24 1.20838 1.208 13.7617 1.03697
4944.64 1.21456 1.21355 13.6957 1.03703
4945.05 1.22044 1.21857 13.6333 1.03709
4945.45 1.22623 1.22288 13.5723 1.03715
4945.85 1.23197 1.22651 13.5192 1.03721
4946.26 1.23717 1.22969 13.4664 1.03727
4946.66 1.24139 1.23263 13.4313 1.03733
4947.07 1.24472 1.23549 13.3981 1.03739
4947.47 1.24743 1.23825 13.3709 1.03745
4947.88 1.24972 1.24071 13.3465 1.03752
4948.28 1.25171 1.24258 13.3245 1.03758
4948.69 1.25332 1.24368 13.3055 1.03764
4949.09 1.2542 1.24395 13.2924 1.03771
4949.5 1.25413 1.24346 13.2991 1.03777
4949.9 1.25311 1.24239 13.3058 1.03784
4950.31 1.25121 1.24093 13.3289 1.0379
4950.71 1.24873 1.23915 13.3521 1.03797
4951.12 1.24601 1.23707 13.3846 1.03803
4951.52 1.24331 1.23458 13.4199 1.0381
4951.93 1.24082 1.23149 13.4592 1.03817
4952.33 1.23818 1.22761 13.5018 1.03824
4952.74 1.23456 1.22285 13.5494 1.0383
4953.14 1.22948 1.21721 13.6067 1.03837
4953.55 1.22297 1.21092 13.6659 1.03844
4953.95 1.21529 1.20432 13.7355 1.03851
4954.36 1.20707 1.19781 13.8058 1.03858
4954.77 1.1991 1.19173 13.8827 1.03865
4955.17 1.19241 1.1863 13.961 1.03872
4955.58 1.188 1.1816 14.0151 1.0388
4955.98 1.18526 1.17751 14.058 1.03887
4956.39 1.18266 1.17383 14.1028 1.03894
4956.79 1.17938 1.17032 14.1498 1.03901
4957.2 1.17545 1.16687 14.1962 1.03909
4957.6 1.17106 1.16356 14.2407 1.03916
4958.01 1.16669 1.16066 14.2852 1.03923
4958.42 1.16277 1.15853 14.3203 1.03931
4958.82 1.15946 1.15738 14.3555 1.03938
4959.23 1.15688 1.15721 14.3759 1.03946
4959.63 1.15548 1.15771 14.3926 1.03954
4960.04 1.15578 1.1585 14.3921 1.03961
4960.44 1.15777 1.15928 14.3792 1.03969
4960.85 1.16095 1.15993 14.3593 1.03977
4961.26 1.1646 1.16057 14.3273 1.03984
4961.66 1.16765 1.16142 14.299 1.03992
4962.07 1.1693 1.16267 14.2907 1.04
4962.47 1.1696 1.16436 14.2824 1.04008
4962.88 1.16875 1.16639 14.2915 1.04016
4963.29 1.16716 1.16854 14.3018 1.04024
4963.69 1.16527 1.17056 14.311 1.04032
4964.1 1.16355 1.17222 14.3199 1.0404
4964.5 1.16242 1.17338 14.323 1.04048
4964.91 1.16224 1.17402 14.3204 1.04056
4965.32 1.16325 1.17425 14.3139 1.04064
4965.72 1.16523 1.17425 14.2979 1.04073
4966.13 1.16725 1.17423 14.2829 1.04081
4966.54 1.1685 1.17436 14.2798 1.04089
4966.94 1.16896 1.17469 14.2766 1.04097
4967.35 1.16882 1.17521 14.279 1.04106
4967.75 1.1686 1.17583 14.2823 1.04114
4968.16 1.16886 1.17651 14.2804 1.04123
4968.57 1.16932 1.17727 14.2755 1.04131
4968.97 1.16909 1.17816 14.2759 1.0414
4969.38 1.16808 1.17925 14.2832 1.04148
4969.79 1.16711 1.18051 14.2873 1.04157
4970.19 1.16692 1.18188 14.2796 1.04165
4970.6 1.16792 1.18328 14.2718 1.04174
4971.01 1.17035 1.18465 14.2414 1.04183
4971.41 1.17382 1.18598 14.2112 1.04191
4971.82 1.17772 1.18725 14.1919 1.042
4972.23 1.18103 1.18846 14.1757 1.04209
4972.63 1.18261 1.18954 14.1703 1.04218
4973.04 1.1823 1.19043 14.1729 1.04227
4973.45 1.18081 1.19114 14.1775 1.04235
4973.86 1.17899 1.19167 14.1853 1.04244
4974.26 1.17786 1.19199 14.191 1.04253
4974.67 1.17793 1.19204 14.185 1.04262
4975.08 1.17841 1.19161 14.1789 1.04271
4975.48 1.17833 1.19053 14.1952 1.0428
4975.89 1.17697 1.1887 14.213 1.04289
4976.3 1.17376 1.18608 14.2495 1.04299
4976.7 1.16878 1.18273 14.293 1.04308
4977.11 1.16248 1.17872 14.3488 1.04317
4977.52 1.15589 1.17407 14.416 1.04326
4977.93 1.1505 1.16878 14.4789 1.04335
4978.33 1.14647 1.1629 14.5318 1.04344
4978.74 1.14165 1.15653 14.5902 1.04354
4979.15 1.1344 1.14989 14.6957 1.04363
4979.56 1.12531 1.14323 14.8024 1.04372
4979.96 1.11541 1.13674 14.9164 1.04382
4980.37 1.10606 1.13057 15.0325 1.04391
4980.78 1.0986 1.12472 15.1226 1.04401
4981.19 1.09307 1.11918 15.2006 1.0441
4981.59 1.08871 1.11396 15.2506 1.04419
4982.0 1.08555 1.10914 15.2691 1.04429
4982.41 1.08437 1.1049 15.283 1.04438
4982.82 1.08536 1.10144 15.2837 1.04448
4983.22 1.08744 1.09893 15.2847 1.04458
4983.63 1.08913 1.09744 15.288 1.04467
4984.04 1.08808 1.09696 15.2914 1.04477
4984.45 1.08257 1.09737 15.3812 1.04486
4984.86 1.07607 1.09846 15.487 1.04496
4985.26 1.07374 1.10005 15.5031 1.04506
4985.67 1.07649 1.10202 15.4695 1.04515
4986.08 1.08232 1.10433 15.4174 1.04525
4986.49 1.08905 1.10703 15.3421 1.04535
4986.89 1.09436 1.11017 15.2723 1.04545
4987.3 1.09737 1.11376 15.2194 1.04554
4987.71 1.10013 1.11768 15.1662 1.04564
4988.12 1.10444 1.12177 15.0921 1.04574
4988.53 1.11003 1.12589 15.0187 1.04584
4988.94 1.11614 1.12995 14.935 1.04594
4989.34 1.12251 1.13391 14.8498 1.04604
4989.75 1.12906 1.1378 14.763 1.04614
4990.16 1.13588 1.14156 14.6756 1.04624
4990.57 1.14318 1.14508 14.6036 1.04634
4990.98 1.15033 1.14829 14.5529 1.04644
4991.39 1.15562 1.15111 14.5105 1.04654
4991.79 1.158 1.15355 14.4988 1.04664
4992.2 1.15807 1.15566 14.4873 1.04674
4992.61 1.15663 1.15743 14.4974 1.04684
4993.02 1.15466 1.15875 14.5076 1.04694
4993.43 1.15306 1.15948 14.5308 1.04704
4993.84 1.15213 1.15954 14.5572 1.04714
4994.24 1.15189 1.15898 14.5635 1.04724
4994.65 1.15205 1.15798 14.5562 1.04734
4995.06 1.15214 1.15677 14.5496 1.04744
4995.47 1.15194 1.15546 14.5438 1.04755
4995.88 1.15159 1.154 14.5385 1.04765
4996.29 1.15133 1.15225 14.5353 1.04775
4996.7 1.15166 1.15006 14.532 1.04785
4997.11 1.1527 1.14737 14.5286 1.04795
4997.51 1.15294 1.14425 14.5252 1.04806
4997.92 1.15077 1.14084 14.5638 1.04816
4998.33 1.14652 1.13728 14.6138 1.04826
4998.74 1.14141 1.13363 14.6661 1.04836
4999.15 1.13649 1.12991 14.7203 1.04847
4999.56 1.13268 1.12611 14.7657 1.04857
4999.97 1.12998 1.12225 14.7971 1.04867
5000.38 1.12719 1.11835 14.8325 1.04878
5000.79 1.12363 1.11442 14.8842 1.04888
5001.2 1.11987 1.11045 14.9362 1.04898
5001.61 1.11658 1.10642 14.9747 1.04909
5002.01 1.11386 1.10231 15.0131 1.04919
5002.42 1.1117 1.09818 15.042 1.0493
5002.83 1.1098 1.09417 15.0685 1.0494
5003.24 1.10778 1.09042 15.0924 1.0495
5003.65 1.10556 1.08708 15.1146 1.04961
5004.06 1.1033 1.08421 15.1383 1.04971
5004.47 1.10123 1.08176 15.164 1.04982
5004.88 1.09963 1.07966 15.1876 1.04992
5005.29 1.09873 1.07783 15.2024 1.05003
5005.7 1.09863 1.07617 15.2172 1.05013
5006.11 1.09933 1.07469 15.2113 1.05024
5006.52 1.10052 1.07344 15.2054 1.05034
5006.93 1.10182 1.07251 15.1871 1.05045
5007.34 1.10276 1.07196 15.1658 1.05055
5007.75 1.10283 1.07176 15.1632 1.05066
5008.16 1.10188 1.07176 15.1729 1.05077
5008.57 1.10001 1.07168 15.192 1.05087
5008.98 1.09749 1.07126 15.2249 1.05098
5009.39 1.0948 1.07038 15.2569 1.05109
5009.8 1.09224 1.06909 15.2847 1.0512
5010.21 1.08966 1.06765 15.3126 1.0513
5010.62 1.08696 1.06633 15.3401 1.05141
5011.03 1.08431 1.06532 15.3678 1.05152
5011.44 1.08192 1.06462 15.4027 1.05163
5011.85 1.07988 1.06411 15.4393 1.05174
5012.26 1.0782 1.06363 15.4859 1.05185
5012.67 1.0766 1.06302 15.5386 1.05196
5013.08 1.07459 1.06225 15.5887 1.05207
5013.49 1.07199 1.06132 15.6351 1.05218
5013.9 1.06897 1.06026 15.6776 1.05229
5014.31 1.0658 1.05912 15.7066 1.0524
5014.72 1.06293 1.05801 15.735 1.05251
5015.13 1.06079 1.05706 15.7459 1.05263
5015.54 1.05983 1.05645 15.7567 1.05274
5015.95 1.06028 1.05629 15.7471 1.05285
5016.36 1.06114 1.05661 15.7338 1.05297
5016.77 1.06104 1.0573 15.7488 1.05308
5017.18 1.0597 1.0582 15.7786 1.05319
5017.59 1.05759 1.0592 15.8084 1.05331
5018.0 1.05534 1.06029 15.8381 1.05343
5018.41 1.05369 1.06156 15.8606 1.05354
5018.82 1.05322 1.06317 15.8635 1.05366
5019.23 1.05419 1.06518 15.8611 1.05378
5019.64 1.05675 1.06758 15.7976 1.05389
5020.05 1.06075 1.07024 15.7345 1.05401
5020.46 1.06592 1.073 15.6503 1.05413
5020.88 1.07165 1.07575 15.5642 1.05425
5021.29 1.07717 1.07845 15.4766 1.05437
5021.7 1.08168 1.08109 15.3888 1.05449
5022.11 1.08435 1.08374 15.3451 1.05461
5022.52 1.08531 1.08641 15.3439 1.05473
5022.93 1.08561 1.08914 15.344 1.05486
5023.34 1.08611 1.09197 15.347 1.05498
5023.75 1.08725 1.09495 15.3468 1.0551
5024.16 1.08936 1.09805 15.3242 1.05523
5024.57 1.09246 1.10127 15.3017 1.05535
5024.99 1.09642 1.10456 15.2273 1.05548
5025.4 1.1006 1.1079 15.1501 1.0556
5025.81 1.10429 1.11132 15.1106 1.05573
5026.22 1.10753 1.11485 15.0839 1.05586
5026.63 1.11075 1.11841 15.0523 1.05599
5027.04 1.11421 1.12189 15.0171 1.05612
5027.45 1.11806 1.12519 14.9774 1.05625
5027.86 1.12231 1.12829 14.9302 1.05638
5028.28 1.12676 1.13131 14.8829 1.05651
5028.69 1.13133 1.1344 14.8344 1.05664
5029.1 1.13629 1.13766 14.7861 1.05677
5029.51 1.14177 1.14101 14.7164 1.05691
5029.92 1.1471 1.14429 14.647 1.05704
5030.33 1.15144 1.14728 14.5902 1.05718
5030.74 1.15426 1.14984 14.5364 1.05731
5031.16 1.15522 1.15192 14.5179 1.05745
5031.57 1.15537 1.15352 14.5208 1.05759
5031.98 1.15672 1.15463 14.5054 1.05773
5032.39 1.15989 1.15525 14.4665 1.05786
5032.8 1.1638 1.15536 14.4282 1.058
5033.21 1.16738 1.15496 14.3911 1.05815
5033.63 1.16972 1.15407 14.3551 1.05829
5034.04 1.17009 1.1527 14.334 1.05843
5034.45 1.1682 1.15082 14.313 1.05857
5034.86 1.16394 1.14835 14.3884 1.05872
5035.27 1.15752 1.14519 14.4778 1.05887
5035.69 1.14933 1.14131 14.5888 1.05901
5036.1 1.1401 1.13674 14.7104 1.05916
5036.51 1.13079 1.13169 14.8307 1.05931
5036.92 1.12228 1.12641 14.9497 1.05946
5037.33 1.11535 1.12114 15.0498 1.05961
5037.75 1.11025 1.11609 15.1085 1.05976
5038.16 1.10644 1.11135 15.164 1.05991
5038.57 1.10336 1.10704 15.1984 1.06007
5038.98 1.10063 1.10324 15.2328 1.06022
5039.4 1.09795 1.10007 15.2678 1.06037
5039.81 1.09526 1.09762 15.3028 1.06053
5040.22 1.09266 1.09591 15.3417 1.06069
5040.63 1.09054 1.09492 15.3818 1.06085
5041.04 1.08947 1.09464 15.3882 1.06101
5041.46 1.0897 1.0951 15.3714 1.06117
5041.87 1.09124 1.09635 15.3451 1.06133
5042.28 1.09401 1.09845 15.3051 1.06149
5042.7 1.0978 1.10134 15.2619 1.06166
5043.11 1.10235 1.1048 15.2075 1.06182
5043.52 1.1073 1.10855 15.1533 1.06199
5043.93 1.11234 1.11236 15.0979 1.06216
5044.35 1.11727 1.11609 15.0427 1.06232
5044.76 1.12189 1.11977 14.9902 1.06249
5045.17 1.12586 1.12349 14.9382 1.06266
5045.58 1.12884 1.12733 14.8989 1.06284
5046.0 1.13075 1.13121 14.8653 1.06301
5046.41 1.13173 1.13501 14.8457 1.06318
5046.82 1.13231 1.13854 14.8396 1.06336
5047.24 1.13339 1.14167 14.8215 1.06354
5047.65 1.13563 1.14429 14.779 1.06372
5048.06 1.13928 1.14644 14.7357 1.06389
5048.47 1.14425 1.14816 14.6877 1.06408
5048.89 1.14972 1.14957 14.6399 1.06426
5049.3 1.15467 1.15078 14.5962 1.06444
5049.71 1.1578 1.15191 14.5529 1.06462
5050.13 1.15801 1.15299 14.5446 1.06481
5050.54 1.15655 1.15405 14.5455 1.065
5050.95 1.15565 1.15507 14.539 1.06519
5051.37 1.15602 1.15603 14.5278 1.06538
5051.78 1.15731 1.15703 14.5151 1.06557
5052.19 1.15905 1.1582 14.5003 1.06576
5052.61 1.16068 1.1597 14.4859 1.06595
5053.02 1.16208 1.16166 14.4726 1.06615
5053.43 1.16394 1.16414 14.456 1.06634
5053.85 1.1668 1.16708 14.4015 1.06654
5054.26 1.17046 1.17037 14.3474 1.06674
5054.67 1.17461 1.1739 14.2966 1.06694
5055.09 1.1789 1.17756 14.2465 1.06714
5055.5 1.18298 1.18125 14.2031 1.06735
5055.91 1.18647 1.18491 14.1622 1.06755
5056.33 1.18907 1.18848 14.129 1.06776
5056.74 1.19149 1.192 14.1019 1.06796
5057.16 1.19531 1.19554 14.072 1.06817
5057.57 1.20101 1.19919 14.0374 1.06838
5057.98 1.20743 1.20295 14.0022 1.06859
5058.4 1.21324 1.20666 13.9646 1.0688
5058.81 1.21691 1.21007 13.9272 1.06902
5059.23 1.21758 1.21282 13.8917 1.06923
5059.64 1.2168 1.21464 13.8563 1.06945
5060.05 1.21644 1.21544 13.8471 1.06966
5060.47 1.21663 1.21527 13.8423 1.06988
5060.88 1.21682 1.21432 13.8425 1.0701
5061.3 1.21648 1.2128 13.845 1.07032
5061.71 1.21512 1.21086 13.8488 1.07053
5062.12 1.2124 1.20857 13.8539 1.07075
5062.54 1.20815 1.20595 13.8872 1.07098
5062.95 1.20268 1.20294 13.9774 1.0712
5063.37 1.19709 1.1995 14.0638 1.07142
5063.78 1.19225 1.19562 14.1266 1.07164
5064.2 1.18832 1.19134 14.1898 1.07186
5064.61 1.18525 1.18685 14.229 1.07209
5065.02 1.18258 1.18238 14.268 1.07231
5065.44 1.17981 1.17823 14.2905 1.07254
5065.85 1.17705 1.17462 14.3093 1.07276
5066.27 1.17464 1.17157 14.3315 1.07299
5066.68 1.17243 1.16891 14.3555 1.07321
5067.1 1.16998 1.16635 14.3857 1.07344
5067.51 1.16696 1.16365 14.4228 1.07366
5067.93 1.16321 1.16076 14.4668 1.07389
5068.34 1.1589 1.15791 14.5266 1.07411
5068.75 1.15482 1.15542 14.5821 1.07434
5069.17 1.1516 1.15358 14.6075 1.07457
5069.58 1.14927 1.15253 14.6329 1.07479
5070.0 1.14777 1.15216 14.6449 1.07502
5070.41 1.14697 1.15219 14.6563 1.07524
5070.83 1.14672 1.15227 14.6587 1.07547
5071.24 1.14682 1.15212 14.6588 1.0757
5071.66 1.14706 1.15156 14.6559 1.07592
5072.07 1.1473 1.15066 14.6512 1.07615
5072.49 1.14744 1.14961 14.6503 1.07637
5072.9 1.14738 1.14869 14.654 1.0766
5073.32 1.14704 1.14808 14.6602 1.07682
5073.73 1.14636 1.14774 14.6728 1.07704
5074.15 1.14529 1.14746 14.687 1.07727
5074.56 1.1438 1.14684 14.7138 1.07749
5074.98 1.14191 1.14558 14.7407 1.07771
5075.39 1.13963 1.14354 14.7866 1.07793
5075.81 1.13704 1.14082 14.8338 1.07815
5076.23 1.13424 1.13774 14.8759 1.07837
5076.64 1.13132 1.13463 14.9168 1.07859
5077.06 1.12839 1.13172 14.948 1.07881
5077.47 1.12556 1.12907 14.9732 1.07903
5077.89 1.12298 1.12659 14.9946 1.07925
5078.3 1.12059 1.12408 15.0114 1.07946
5078.72 1.11815 1.12136 15.0312 1.07968
5079.13 1.11556 1.11838 15.0588 1.07989
5079.55 1.11293 1.11529 15.0871 1.08011
5079.96 1.11048 1.11235 15.121 1.08032
5080.38 1.10852 1.1099 15.1549 1.08053
5080.8 1.10737 1.10827 15.1769 1.08074
5081.21 1.10731 1.1076 15.1983 1.08095
5081.63 1.10848 1.10784 15.2027 1.08116
5082.04 1.1102 1.10878 15.2024 1.08137
5082.46 1.11145 1.11016 15.2036 1.08157
5082.87 1.11155 1.11177 15.2057 1.08177
5083.29 1.11011 1.11361 15.219 1.08198
5083.71 1.10818 1.11579 15.2454 1.08218
5084.12 1.10835 1.11847 15.247 1.08238
5084.54 1.11186 1.12181 15.189 1.08258
5084.95 1.11748 1.12581 15.1296 1.08277
5085.37 1.12387 1.13036 15.0589 1.08297
5085.79 1.1301 1.13523 14.9887 1.08316
5086.2 1.13546 1.14019 14.9179 1.08335
5086.62 1.14002 1.14504 14.8476 1.08354
5087.04 1.14405 1.14968 14.8091 1.08373
5087.45 1.14799 1.15411 14.7784 1.08392
5087.87 1.15227 1.15845 14.7397 1.0841
5088.28 1.1571 1.1628 14.6967 1.08429
5088.7 1.16251 1.16724 14.6481 1.08447
5089.12 1.16836 1.17176 14.5935 1.08465
5089.53 1.17435 1.17618 14.5336 1.08482
5089.95 1.18017 1.18028 14.462 1.085
5090.37 1.18553 1.18382 14.3911 1.08517
5090.78 1.19008 1.1866 14.3213 1.08534
5091.2 1.19344 1.18856 14.2519 1.08551
5091.62 1.19529 1.18978 14.2164 1.08568
5092.03 1.19563 1.19043 14.181 1.08584
5092.45 1.1947 1.19069 14.1988 1.086
5092.87 1.19359 1.19069 14.2268 1.08616
5093.28 1.19358 1.19038 14.2326 1.08632
5093.7 1.19424 1.18961 14.2278 1.08648
5094.12 1.19408 1.18819 14.2344 1.08663
5094.53 1.19223 1.18597 14.2518 1.08678
5094.95 1.18842 1.18299 14.2789 1.08693
5095.37 1.18297 1.17951 14.3235 1.08707
5095.78 1.17697 1.17585 14.3718 1.08721
5096.2 1.17139 1.17234 14.4344 1.08735
5096.62 1.16691 1.16918 14.4967 1.08749
5097.03 1.16389 1.16638 14.5425 1.08762
5097.45 1.16193 1.16382 14.5886 1.08776
5097.87 1.1604 1.16135 14.6287 1.08789
5098.29 1.15848 1.15883 14.6682 1.08801
5098.7 1.15538 1.1562 14.7152 1.08813
5099.12 1.15135 1.15356 14.7653 1.08825
5099.54 1.14719 1.15107 14.8159 1.08837
5099.95 1.1434 1.14895 14.8669 1.08849
5100.37 1.14026 1.14729 14.9131 1.0886
5100.79 1.13791 1.14608 14.9521 1.0887
5101.21 1.13642 1.1452 14.9857 1.08881
5101.62 1.13575 1.14445 15.003 1.08891
5102.04 1.13578 1.14369 15.0182 1.08901
5102.46 1.13618 1.14287 15.0137 1.0891
5102.88 1.13612 1.14201 15.0092 1.0892
5103.29 1.13488 1.1412 15.02 1.08928
5103.71 1.13253 1.14051 15.0318 1.08937
5104.13 1.12949 1.13998 15.0542 1.08945
5104.55 1.12689 1.13961 15.0795 1.08953
5104.96 1.12607 1.13938 15.0809 1.0896
5105.38 1.12663 1.13923 15.0683 1.08967
5105.8 1.127 1.13911 15.0551 1.08974
5106.22 1.1267 1.13897 15.0413 1.08981
5106.63 1.12641 1.13878 15.0273 1.08987
5107.05 1.12699 1.13856 15.013 1.08992
5107.47 1.12941 1.1384 14.9989 1.08997
5107.89 1.13352 1.13843 14.9855 1.09002
5108.31 1.13641 1.13881 14.9728 1.09007
5108.72 1.13577 1.1396 15.0074 1.09011
5109.14 1.13329 1.14078 15.0421 1.09015
5109.56 1.13149 1.14223 15.0397 1.09018
5109.98 1.13211 1.14383 15.0314 1.09021
5110.4 1.1363 1.14552 14.9563 1.09024
5110.81 1.14261 1.14734 14.8547 1.09026
5111.23 1.14818 1.14942 14.7938 1.09028
5111.65 1.15204 1.15187 14.7648 1.09029
5112.07 1.15481 1.15472 14.7355 1.09031
5112.49 1.15717 1.15791 14.7056 1.09031
5112.91 1.15968 1.16131 14.6736 1.09032
5113.32 1.16291 1.16482 14.6355 1.09032
5113.74 1.16737 1.16837 14.594 1.09032
5114.16 1.17304 1.17195 14.5215 1.09032
5114.58 1.17845 1.17549 14.4495 1.09031
5115.0 1.18215 1.1789 14.4051 1.0903
5115.42 1.1843 1.18206 14.3623 1.09029
5115.83 1.18553 1.18482 14.3277 1.09027
5116.25 1.18682 1.18712 14.2951 1.09026
5116.67 1.18914 1.18895 14.2502 1.09024
5117.09 1.19193 1.19028 14.1988 1.09021
5117.51 1.19358 1.19109 14.1789 1.09019
5117.93 1.19338 1.19126 14.1902 1.09016
5118.35 1.19152 1.19066 14.21 1.09013
5118.77 1.18837 1.18922 14.2455 1.0901
5119.18 1.18445 1.18691 14.2838 1.09006
5119.6 1.18036 1.18381 14.3326 1.09002
5120.02 1.17682 1.18004 14.381 1.08998
5120.44 1.17425 1.17572 14.4161 1.08994
5120.86 1.17191 1.17097 14.4514 1.0899
5121.28 1.16896 1.16593 14.5091 1.08985
5121.7 1.16502 1.16075 14.5695 1.08981
5122.12 1.15996 1.15553 14.6516 1.08976
5122.54 1.15419 1.15033 14.7411 1.08971
5122.96 1.14836 1.14512 14.8385 1.08965
5123.37 1.14258 1.13985 14.9413 1.0896
5123.79 1.13652 1.13457 15.0431 1.08954
5124.21 1.13013 1.1294 15.1436 1.08949
5124.63 1.12368 1.12454 15.2411 1.08943
5125.05 1.1175 1.12015 15.3307 1.08937
5125.47 1.11203 1.11632 15.4137 1.0893
5125.89 1.10752 1.11306 15.4614 1.08924
5126.31 1.10369 1.11033 15.5089 1.08918
5126.73 1.10037 1.10816 15.5417 1.08911
5127.15 1.098 1.10661 15.5746 1.08905
5127.57 1.09713 1.10574 15.5829 1.08898
5127.99 1.09801 1.1056 15.5878 1.08891
5128.41 1.10069 1.10611 15.557 1.08884
5128.83 1.10425 1.10712 15.5134 1.08878
5129.25 1.10731 1.10847 15.4851 1.08871
5129.67 1.1094 1.11006 15.4673 1.08863
5130.09 1.1108 1.11185 15.4481 1.08856
5130.51 1.11189 1.11387 15.4269 1.08849
5130.93 1.11314 1.11617 15.4032 1.08842
5131.35 1.11504 1.11873 15.3733 1.08835
5131.77 1.11812 1.12146 15.337 1.08827
5132.19 1.1226 1.1242 15.2652 1.0882
5132.6 1.12796 1.12677 15.1941 1.08813
5133.02 1.13354 1.12903 15.1414 1.08806
5133.44 1.1385 1.13086 15.089 1.08798
5133.86 1.14198 1.13221 15.056 1.08791
5134.28 1.14324 1.13308 15.0259 1.08784
5134.71 1.14182 1.13356 15.0342 1.08776
5135.13 1.13978 1.13373 15.0571 1.08769
5135.55 1.1404 1.13367 15.0426 1.08762
5135.97 1.144 1.13337 15.0018 1.08754
5136.39 1.14853 1.13282 14.9637 1.08747
5136.81 1.15179 1.13196 14.9292 1.0874
5137.23 1.15159 1.13079 14.92 1.08733
5137.65 1.14769 1.12934 14.9694 1.08726
5138.07 1.14326 1.12764 15.0155 1.08719
5138.49 1.14074 1.12568 15.0433 1.08712
5138.91 1.13986 1.12346 15.0708 1.08705
5139.33 1.13992 1.12105 15.0787 1.08699
5139.75 1.14024 1.11858 15.0865 1.08692
5140.17 1.14018 1.11629 15.0736 1.08686
5140.59 1.13951 1.11434 15.0579 1.08679
5141.01 1.13814 1.11273 15.0809 1.08673
5141.43 1.13603 1.11126 15.1178 1.08667
5141.85 1.13317 1.10965 15.1552 1.08661
5142.27 1.12982 1.10775 15.193 1.08655
5142.69 1.12638 1.10562 15.23 1.08649
5143.11 1.12341 1.10354 15.2659 1.08643
5143.53 1.12157 1.10182 15.2991 1.08638
5143.96 1.12082 1.10065 15.3261 1.08633
5144.38 1.11996 1.09997 15.3551 1.08627
5144.8 1.11809 1.09954 15.3923 1.08622
5145.22 1.11529 1.09905 15.4298 1.08618
5145.64 1.11184 1.09836 15.4731 1.08613
5146.06 1.10841 1.09747 15.5165 1.08609
5146.48 1.10568 1.09654 15.5613 1.08604
5146.9 1.10416 1.09574 15.6063 1.086
5147.32 1.10418 1.09513 15.6253 1.08597
5147.75 1.10506 1.09471 15.6363 1.08593
5148.17 1.10562 1.09441 15.6476 1.0859
5148.59 1.10499 1.09418 15.6589 1.08587
5149.01 1.10261 1.09401 15.6809 1.08584
5149.43 1.09916 1.09392 15.7139 1.08581
5149.85 1.09658 1.09395 15.7407 1.08579
5150.27 1.09579 1.09416 15.7561 1.08577
5150.69 1.09611 1.09467 15.7666 1.08575
5151.12 1.09691 1.09555 15.7602 1.08573
5151.54 1.09792 1.09689 15.7516 1.08572
5151.96 1.09911 1.09867 15.7206 1.08571
5152.38 1.10111 1.10076 15.6898 1.0857
5152.8 1.1044 1.10302 15.6127 1.0857
5153.22 1.10825 1.1053 15.5338 1.08569
5153.64 1.11169 1.10751 15.4727 1.0857
5154.07 1.11458 1.10964 15.4157 1.0857
5154.49 1.11717 1.11175 15.3685 1.08571
5154.91 1.12014 1.11396 15.3258 1.08572
5155.33 1.12437 1.11638 15.2752 1.08573
5155.75 1.1293 1.11913 15.2183 1.08575
5156.18 1.13319 1.1222 15.167 1.08577
5156.6 1.13535 1.12545 15.1235 1.0858
5157.02 1.13649 1.12864 15.0838 1.08583
5157.44 1.13752 1.13144 15.053 1.08586
5157.86 1.13947 1.13348 15.0255 1.0859
5158.29 1.14272 1.13455 15.0155 1.08594
5158.71 1.14576 1.13451 15.0061 1.08598
5159.13 1.14712 1.13336 15.0243 1.08603
5159.55 1.14657 1.13118 15.0425 1.08608
5159.97 1.14419 1.12806 15.0927 1.08614
5160.4 1.14011 1.12406 15.1473 1.0862
5160.82 1.13452 1.11918 15.2425 1.08626
5161.24 1.12743 1.1133 15.3521 1.08633
5161.66 1.11876 1.10631 15.4731 1.0864
5162.08 1.10861 1.0981 15.602 1.08648
5162.51 1.09712 1.08868 15.7459 1.08656
5162.93 1.08456 1.07816 15.9061 1.08665
5163.35 1.07124 1.06673 16.0801 1.08674
5163.77 1.05759 1.05457 16.2772 1.08684
5164.2 1.04418 1.04188 16.4838 1.08694
5164.62 1.0311 1.02881 16.7139 1.08704
5165.04 1.01747 1.01557 16.9498 1.08715
5165.46 1.00261 1.0024 17.1991 1.08726
5165.89 0.986775 0.989547 17.4539 1.08738
5166.31 0.970493 0.977212 17.7158 1.0875
5166.73 0.954814 0.965467 17.9837 1.08762
5167.16 0.94079 0.954277 18.2249 1.08775
5167.58 0.928631 0.943612 18.4646 1.08789
5168.0 0.91818 0.933512 18.6695 1.08802
5168.42 0.909017 0.924126 18.8616 1.08817
5168.85 0.900577 0.915703 19.0355 1.08831
5169.27 0.892389 0.908488 19.1965 1.08846
5169.69 0.884091 0.90267 19.3446 1.08861
5170.12 0.876446 0.898349 19.4763 1.08877
5170.54 0.871446 0.895528 19.5697 1.08893
5170.96 0.869778 0.894147 19.5824 1.08909
5171.39 0.869972 0.894098 19.5883 1.08926
5171.81 0.870628 0.895285 19.5664 1.08943
5172.23 0.870917 0.897668 19.5441 1.08961
5172.65 0.87094 0.901257 19.516 1.08978
5173.08 0.873517 0.906086 19.488 1.08997
5173.5 0.881052 0.912109 19.3061 1.09015
5173.92 0.89141 0.919116 19.1184 1.09034
5174.35 0.901396 0.926755 18.948 1.09053
5174.77 0.909662 0.934563 18.7831 1.09073
5175.19 0.915876 0.942101 18.6487 1.09092
5175.62 0.922219 0.949111 18.5281 1.09112
5176.04 0.932132 0.955524 18.3536 1.09133
5176.46 0.945026 0.961444 18.1408 1.09154
5176.89 0.956988 0.967057 17.9744 1.09175
5177.31 0.965594 0.97243 17.8633 1.09196
5177.74 0.970266 0.977446 17.7799 1.09217
5178.16 0.971374 0.981837 17.7539 1.09239
5178.58 0.970641 0.985236 17.7417 1.09261
5179.01 0.969493 0.987365 17.7857 1.09284
5179.43 0.968397 0.988174 17.829 1.09307
5179.85 0.967572 0.987829 17.8598 1.0933
5180.28 0.966849 0.986684 17.8907 1.09353
5180.7 0.965952 0.985189 17.926 1.09376
5181.13 0.964489 0.983731 17.9617 1.094
5181.55 0.962154 0.982561 18.0333 1.09424
5181.97 0.959469 0.981772 18.1131 1.09448
5182.4 0.957259 0.981312 18.1653 1.09473
5182.82 0.955923 0.981085 18.2058 1.09498
5183.25 0.955605 0.981077 18.2237 1.09523
5183.67 0.956383 0.981459 18.2252 1.09548
5184.09 0.95828 0.982553 18.2 1.09573
5184.52 0.961343 0.98472 18.1432 1.09599
5184.94 0.965647 0.988202 18.0594 1.09625
5185.37 0.971152 0.992973 17.9228 1.09651
5185.79 0.977643 0.998751 17.7854 1.09677
5186.22 0.984903 1.00509 17.6416 1.09703
5186.64 0.992737 1.01158 17.4999 1.0973
5187.06 1.00098 1.01795 17.3627 1.09757
5187.49 1.00952 1.02414 17.2272 1.09784
5187.91 1.0183 1.03029 17.0758 1.09811
5188.34 1.02737 1.03662 16.926 1.09838
5188.76 1.03676 1.04334 16.7718 1.09866
5189.19 1.0464 1.05062 16.6186 1.09893
5189.61 1.05613 1.05849 16.4633 1.09921
5190.04 1.06568 1.06678 16.3086 1.09949
5190.46 1.07473 1.07515 16.1609 1.09977
5190.88 1.08313 1.0831 16.018 1.10005
5191.31 1.09081 1.09018 15.8968 1.10034
5191.73 1.09785 1.09618 15.7969 1.10062
5192.16 1.10444 1.10121 15.7081 1.10091
5192.58 1.11082 1.10566 15.637 1.1012
5193.01 1.11725 1.11 15.5689 1.10149
5193.43 1.12371 1.11454 15.5084 1.10178
5193.86 1.12963 1.11931 15.4488 1.10207
5194.28 1.13455 1.12406 15.3923 1.10236
5194.71 1.13852 1.12847 15.3364 1.10266
5195.13 1.1417 1.13232 15.2896 1.10295
5195.56 1.14443 1.13559 15.2431 1.10325
5195.98 1.1472 1.13841 15.2177 1.10354
5196.41 1.15103 1.14102 15.1947 1.10384
5196.83 1.15687 1.14358 15.142 1.10414
5197.26 1.16368 1.14611 15.0817 1.10444
5197.68 1.16953 1.1485 15.0322 1.10474
5198.11 1.17308 1.15059 14.9882 1.10504
5198.54 1.17349 1.15224 14.9712 1.10534
5198.96 1.172 1.15342 14.976 1.10564
5199.39 1.17164 1.15412 14.9742 1.10594
5199.81 1.17336 1.15439 14.9638 1.10624
5200.24 1.17567 1.15422 14.9556 1.10655
5200.66 1.17724 1.15355 14.952 1.10685
5201.09 1.17726 1.1523 14.9507 1.10715
5201.51 1.17546 1.1504 14.9584 1.10746
5201.94 1.17262 1.14781 14.9709 1.10776
5202.36 1.16927 1.14457 15.0313 1.10806
5202.79 1.16466 1.14074 15.0922 1.10837
5203.22 1.15801 1.13635 15.1806 1.10867
5203.64 1.14963 1.13144 15.2704 1.10898
5204.07 1.14021 1.12605 15.3793 1.10928
5204.49 1.13121 1.12026 15.4923 1.10959
5204.92 1.1242 1.11431 15.5679 1.10989
5205.34 1.11915 1.10851 15.6311 1.11019
5205.77 1.11519 1.10328 15.6882 1.1105
5206.2 1.11161 1.0989 15.7419 1.1108
5206.62 1.10778 1.09553 15.795 1.1111
5207.05 1.10323 1.09313 15.8475 1.11141
5207.47 1.09766 1.09152 15.9114 1.11171
5207.9 1.0919 1.09058 15.9917 1.11201
5208.33 1.08827 1.0904 16.0428 1.11231
5208.75 1.08812 1.0912 16.024 1.11261
5209.18 1.09096 1.09336 15.996 1.11292
5209.61 1.09596 1.09708 15.9281 1.11322
5210.03 1.1019 1.10227 15.8591 1.11351
5210.46 1.10786 1.10856 15.7721 1.11381
5210.88 1.11419 1.11548 15.6858 1.11411
5211.31 1.12132 1.12261 15.5921 1.11441
5211.74 1.12908 1.12983 15.4989 1.1147
5212.16 1.13713 1.13718 15.4045 1.115
5212.59 1.1452 1.14477 15.3105 1.11529
5213.02 1.15306 1.15261 15.2172 1.11559
5213.44 1.16067 1.16059 15.1246 1.11588
5213.87 1.16809 1.16852 15.0367 1.11617
5214.3 1.17563 1.17626 14.9517 1.11646
5214.72 1.18378 1.18372 14.858 1.11675
5215.15 1.19271 1.19088 14.7565 1.11704
5215.58 1.20228 1.19773 14.645 1.11732
5216.0 1.21181 1.20424 14.519 1.11761
5216.43 1.21996 1.21036 14.4183 1.11789
5216.86 1.22619 1.216 14.3727 1.11818
5217.28 1.23131 1.22104 14.3283 1.11846
5217.71 1.23598 1.22536 14.2888 1.11874
5218.14 1.24018 1.22885 14.2497 1.11901
5218.56 1.24354 1.23147 14.2141 1.11929
5218.99 1.24491 1.23323 14.1786 1.11956
5219.42 1.24352 1.23415 14.1983 1.11984
5219.85 1.24083 1.23424 14.2192 1.12011
5220.27 1.23864 1.23352 14.2322 1.12038
5220.7 1.23748 1.23204 14.2441 1.12065
5221.13 1.23732 1.22989 14.2522 1.12092
5221.55 1.23739 1.22723 14.2592 1.12118
5221.98 1.23662 1.22418 14.2765 1.12145
5222.41 1.23459 1.22079 14.2991 1.12171
5222.84 1.23132 1.21712 14.3338 1.12198
5223.26 1.227 1.21324 14.3784 1.12224
5223.69 1.22192 1.20921 14.428 1.1225
5224.12 1.21646 1.2052 14.4838 1.12275
5224.55 1.21109 1.20136 14.5386 1.12301
5224.97 1.20612 1.19786 14.5906 1.12327
5225.4 1.20165 1.19485 14.6414 1.12352
5225.83 1.19777 1.19237 14.687 1.12378
5226.26 1.19458 1.19039 14.7312 1.12403
5226.68 1.19216 1.18883 14.7646 1.12428
5227.11 1.19052 1.18769 14.7974 1.12453
5227.54 1.18965 1.18702 14.8032 1.12478
5227.97 1.18938 1.18697 14.809 1.12502
5228.39 1.18954 1.18761 14.7988 1.12527
5228.82 1.19015 1.18893 14.7872 1.12551
5229.25 1.19127 1.19078 14.7636 1.12576
5229.68 1.19298 1.193 14.7374 1.126
5230.11 1.19537 1.1955 14.6969 1.12624
5230.53 1.19859 1.19837 14.6508 1.12648
5230.96 1.20277 1.20179 14.6059 1.12672
5231.39 1.20763 1.20594 14.5617 1.12696
5231.82 1.21254 1.21088 14.5168 1.1272
5232.25 1.21718 1.21645 14.471 1.12743
5232.67 1.22153 1.22241 14.4242 1.12767
5233.1 1.22616 1.22857 14.3758 1.1279
5233.53 1.23231 1.2348 14.327 1.12813
5233.96 1.24015 1.24112 14.2772 1.12837
5234.39 1.24791 1.2475 14.2272 1.1286
5234.81 1.25418 1.25387 14.1759 1.12883
5235.24 1.25869 1.26008 14.1245 1.12906
5235.67 1.2618 1.266 14.0709 1.12928
5236.1 1.2652 1.27163 14.0175 1.12951
5236.53 1.2703 1.27704 13.9293 1.12974
5236.96 1.27649 1.28234 13.8418 1.12996
5237.38 1.28271 1.28755 13.7768 1.13019
5237.81 1.28841 1.29255 13.7147 1.13041
5238.24 1.29324 1.29717 13.6699 1.13063
5238.67 1.29714 1.30131 13.6296 1.13085
5239.1 1.3002 1.305 13.6047 1.13107
5239.53 1.30257 1.30832 13.5865 1.13129
5239.96 1.30443 1.31138 13.5719 1.13151
5240.39 1.30595 1.31418 13.5597 1.13173
5240.81 1.30724 1.31661 13.5498 1.13195
5241.24 1.30837 1.31852 13.5422 1.13216
5241.67 1.30936 1.31973 13.5367 1.13238
5242.1 1.30997 1.32008 13.5344 1.1326
5242.53 1.30964 1.3195 13.5388 1.13281
5242.96 1.30812 1.31811 13.5587 1.13302
5243.39 1.30573 1.3162 13.5806 1.13324
5243.82 1.30288 1.31417 13.6097 1.13345
5244.25 1.30008 1.31233 13.6387 1.13366
5244.67 1.29775 1.31077 13.6657 1.13387
5245.1 1.29599 1.30925 13.6927 1.13408
5245.53 1.2947 1.30738 13.7112 1.13429
5245.96 1.2932 1.30481 13.7298 1.1345
5246.39 1.29071 1.30138 13.7559 1.13471
5246.82 1.2868 1.2973 13.7828 1.13491
5247.25 1.28132 1.29299 13.8316 1.13512
5247.68 1.27572 1.2889 13.8856 1.13533
5248.11 1.27191 1.2854 13.9093 1.13553
5248.54 1.27005 1.28257 13.9211 1.13574
5248.97 1.26933 1.28024 13.9289 1.13594
5249.4 1.2689 1.27814 13.9342 1.13614
5249.83 1.26792 1.27599 13.9418 1.13635
5250.26 1.26561 1.27373 13.9516 1.13655
5250.69 1.26132 1.27153 13.9821 1.13675
5251.12 1.25593 1.26976 14.0399 1.13695
5251.54 1.25208 1.26881 14.0847 1.13716
5251.97 1.25161 1.26888 14.1032 1.13736
5252.4 1.25494 1.26999 14.1064 1.13756
5252.83 1.26097 1.27188 14.0617 1.13776
5253.26 1.26581 1.2742 14.0226 1.13796
5253.69 1.267 1.27666 14.015 1.13816
5254.12 1.26664 1.27906 14.007 1.13835
5254.55 1.26711 1.28133 13.9901 1.13855
5254.98 1.26926 1.28345 13.9732 1.13875
5255.41 1.2732 1.28539 13.9447 1.13895
5255.84 1.27738 1.28704 13.9159 1.13914
5256.27 1.28006 1.28828 13.8854 1.13934
5256.7 1.28138 1.28895 13.8547 1.13954
5257.13 1.28213 1.28888 13.8407 1.13973
5257.56 1.28256 1.28793 13.8314 1.13993
5257.99 1.28262 1.28606 13.8363 1.14012
5258.42 1.28199 1.28331 13.8478 1.14032
5258.85 1.28017 1.27976 13.8795 1.14051
5259.28 1.27695 1.27551 13.9254 1.14071
5259.71 1.27234 1.27055 13.9773 1.1409
5260.15 1.26646 1.26476 14.0352 1.1411
5260.58 1.25955 1.25796 14.0991 1.14129
5261.01 1.2519 1.25 14.1714 1.14149
5261.44 1.24389 1.24086 14.2566 1.14168
5261.87 1.23532 1.23066 14.3694 1.14187
5262.3 1.22511 1.2197 14.4886 1.14207
5262.73 1.21279 1.20829 14.6264 1.14226
5263.16 1.19938 1.19682 14.7663 1.14245
5263.59 1.18621 1.18557 14.9085 1.14264
5264.02 1.17492 1.17471 15.0503 1.14284
5264.45 1.16662 1.1643 15.144 1.14303
5264.88 1.16024 1.15424 15.2385 1.14322
5265.31 1.15445 1.14447 15.2856 1.14341
5265.74 1.14861 1.13504 15.3308 1.14361
5266.17 1.14234 1.12618 15.3801 1.1438
5266.6 1.13556 1.11835 15.4303 1.14399
5267.04 1.12837 1.11206 15.544 1.14418
5267.47 1.12173 1.10762 15.6773 1.14437
5267.9 1.11687 1.10505 15.7548 1.14457
5268.33 1.11391 1.10403 15.8072 1.14476
5268.76 1.11228 1.10409 15.8365 1.14495
5269.19 1.11147 1.10491 15.8505 1.14514
5269.62 1.11111 1.10645 15.8482 1.14534
5270.05 1.11183 1.10896 15.8306 1.14553
5270.48 1.1152 1.11283 15.7856 1.14572
5270.92 1.12164 1.11828 15.7044 1.14591
5271.35 1.13002 1.12526 15.6163 1.14611
5271.78 1.13926 1.13346 15.5147 1.1463
5272.21 1.14846 1.1425 15.4103 1.14649
5272.64 1.15723 1.15207 15.2962 1.14668
5273.07 1.1662 1.16202 15.1813 1.14688
5273.5 1.17582 1.17234 15.0576 1.14707
5273.94 1.1859 1.18308 14.9345 1.14726
5274.37 1.19621 1.19417 14.8041 1.14746
5274.8 1.2067 1.20541 14.6754 1.14765
5275.23 1.21751 1.21647 14.5366 1.14784
5275.66 1.22939 1.22702 14.3998 1.14804
5276.09 1.24281 1.23689 14.2563 1.14823
5276.52 1.25606 1.24611 14.1141 1.14842
5276.96 1.26693 1.25475 14.0149 1.14862
5277.39 1.27467 1.26285 13.9254 1.14881
5277.82 1.27943 1.27031 13.8833 1.149
5278.25 1.28365 1.27697 13.8576 1.1492
5278.68 1.2906 1.28271 13.793 1.14939
5279.12 1.29926 1.2876 13.7088 1.14958
5279.55 1.30589 1.29188 13.6551 1.14978
5279.98 1.30876 1.29585 13.6238 1.14997
5280.41 1.30792 1.2998 13.6198 1.15016
5280.84 1.30545 1.30388 13.6441 1.15036
5281.28 1.30534 1.30813 13.6438 1.15055
5281.71 1.30922 1.31254 13.6078 1.15074
5282.14 1.31559 1.31703 13.5647 1.15093
5282.57 1.323 1.32152 13.5068 1.15113
5283.0 1.33038 1.32597 13.4455 1.15132
5283.44 1.33682 1.33032 13.3725 1.15151
5283.87 1.34162 1.33452 13.3084 1.1517
5284.3 1.34455 1.33862 13.2881 1.15189
5284.73 1.34649 1.34271 13.2671 1.15208
5285.17 1.3484 1.3469 13.2378 1.15227
5285.6 1.35093 1.35138 13.2086 1.15246
5286.03 1.35463 1.35625 13.1699 1.15265
5286.46 1.3598 1.36154 13.1314 1.15284
5286.9 1.36649 1.3672 13.069 1.15303
5287.33 1.3737 1.37306 13.0049 1.15322
5287.76 1.38022 1.37885 12.9566 1.15341
5288.19 1.38557 1.38431 12.9116 1.15359
5288.63 1.38962 1.38917 12.8775 1.15378
5289.06 1.39257 1.39329 12.8469 1.15397
5289.49 1.39478 1.39667 12.8288 1.15416
5289.93 1.39631 1.39935 12.8166 1.15434
5290.36 1.39702 1.40141 12.8109 1.15453
5290.79 1.39698 1.40282 12.8096 1.15471
5291.22 1.39644 1.40346 12.8113 1.1549
5291.66 1.39564 1.40318 12.8159 1.15508
5292.09 1.39481 1.40188 12.8212 1.15526
5292.52 1.39392 1.39958 12.8275 1.15545
5292.96 1.39263 1.39636 12.8421 1.15563
5293.39 1.39053 1.39243 12.8715 1.15581
5293.82 1.38716 1.38794 12.906 1.15599
5294.25 1.38215 1.38306 12.9534 1.15617
5294.69 1.37532 1.37797 13.0067 1.15635
5295.12 1.36713 1.37279 13.0827 1.15653
5295.55 1.35948 1.36762 13.1553 1.15671
5295.99 1.35378 1.3625 13.2 1.15688
5296.42 1.34957 1.35744 13.2447 1.15706
5296.85 1.34603 1.35248 13.284 1.15724
5297.29 1.34225 1.34775 13.3235 1.15741
5297.72 1.33756 1.34345 13.3792 1.15758
5298.15 1.33257 1.33987 13.4357 1.15776
5298.59 1.32817 1.33729 13.4683 1.15793
5299.02 1.32517 1.33592 13.4983 1.1581
5299.46 1.32426 1.3358 13.5005 1.15827
5299.89 1.32579 1.33683 13.4966 1.15844
5300.32 1.32985 1.33878 13.4463 1.15861
5300.76 1.33534 1.34148 13.3804 1.15878
5301.19 1.34064 1.34485 13.3327 1.15895
5301.62 1.34528 1.34894 13.294 1.15912
5302.06 1.34956 1.35379 13.2551 1.15928
5302.49 1.35386 1.3594 13.2161 1.15945
5302.93 1.35862 1.36565 13.1703 1.15961
5303.36 1.36422 1.37228 13.1181 1.15977
5303.79 1.37095 1.37908 13.0623 1.15993
5304.23 1.37865 1.3858 13.0019 1.16009
5304.66 1.38663 1.39235 12.9417 1.16025
5305.1 1.39431 1.39871 12.8815 1.16041
5305.53 1.40126 1.40492 12.8222 1.16057
5305.96 1.40746 1.41102 12.7645 1.16073
5306.4 1.41344 1.41697 12.7091 1.16088
5306.83 1.4196 1.42264 12.6605 1.16103
5307.27 1.42599 1.42789 12.6117 1.16119
5307.7 1.43252 1.43258 12.5603 1.16134
5308.13 1.43882 1.43663 12.5086 1.16149
5308.57 1.44427 1.43999 12.4508 1.16164
5309.0 1.44757 1.44268 12.394 1.16179
5309.44 1.44787 1.44472 12.4172 1.16194
5309.87 1.44666 1.44618 12.4405 1.16208
5310.31 1.44579 1.44712 12.4468 1.16223
5310.74 1.44613 1.44759 12.4518 1.16237
5311.18 1.44795 1.44763 12.4257 1.16251
5311.61 1.44974 1.44727 12.3948 1.16265
5312.04 1.44965 1.44653 12.4045 1.16279
5312.48 1.44817 1.44545 12.4248 1.16293
5312.91 1.44682 1.44406 12.4416 1.16307
5313.35 1.44622 1.44238 12.457 1.1632
5313.78 1.44637 1.44041 12.4658 1.16334
5314.22 1.44608 1.43816 12.4711 1.16347
5314.65 1.44345 1.43566 12.4944 1.1636
5315.09 1.43874 1.43292 12.5307 1.16373
5315.52 1.43392 1.42997 12.5622 1.16386
5315.96 1.43018 1.42683 12.5889 1.16398
5316.39 1.42793 1.42354 12.6103 1.16411
5316.83 1.42676 1.42016 12.6251 1.16423
5317.26 1.42533 1.41676 12.6399 1.16436
5317.7 1.42289 1.41336 12.6549 1.16448
5318.13 1.41964 1.40988 12.6743 1.1646
5318.57 1.41577 1.40611 12.7041 1.16471
5319.0 1.41144 1.40182 12.7375 1.16483
5319.44 1.40676 1.39682 12.7824 1.16494
5319.87 1.40186 1.39111 12.8297 1.16506
5320.31 1.39683 1.38481 12.8874 1.16517
5320.74 1.39162 1.37818 12.9449 1.16528
5321.18 1.38618 1.37146 12.9976 1.16539
5321.61 1.38047 1.36477 13.0504 1.16549
5322.05 1.37447 1.35811 13.0993 1.1656
5322.49 1.3682 1.35132 13.1485 1.1657
5322.92 1.36158 1.34414 13.219 1.1658
5323.36 1.35403 1.33638 13.2908 1.1659
5323.79 1.34497 1.328 13.391 1.166
5324.23 1.33469 1.31924 13.4954 1.16609
5324.66 1.32389 1.31058 13.6189 1.16619
5325.1 1.31386 1.30259 13.7478 1.16628
5325.53 1.30594 1.29569 13.8256 1.16637
5325.97 1.29994 1.29 13.888 1.16646
5326.41 1.29493 1.28533 13.9346 1.16655
5326.84 1.29038 1.2813 13.9745 1.16663
5327.28 1.28597 1.27761 14.0042 1.16672
5327.71 1.28158 1.27418 14.0281 1.1668
5328.15 1.27721 1.27125 14.0599 1.16688
5328.59 1.27367 1.26928 14.0977 1.16695
5329.02 1.27231 1.26876 14.1149 1.16703
5329.46 1.27358 1.26998 14.1119 1.1671
5329.89 1.27692 1.2729 14.0966 1.16718
5330.33 1.28131 1.27718 14.0657 1.16725
5330.77 1.28516 1.28229 14.0362 1.16731
5331.2 1.28796 1.28778 14.0088 1.16738
5331.64 1.29062 1.29337 13.9746 1.16744
5332.07 1.29397 1.29902 13.926 1.16751
5332.51 1.29844 1.30486 13.8737 1.16757
5332.95 1.30433 1.31104 13.8101 1.16763
5333.38 1.31175 1.31767 13.7441 1.16769
5333.82 1.32062 1.32471 13.6668 1.16774
5334.26 1.33054 1.33197 13.5906 1.1678
5334.69 1.34083 1.3391 13.5176 1.16785
5335.13 1.35032 1.34562 13.4457 1.1679
5335.57 1.3577 1.35112 13.3829 1.16795
5336.0 1.36162 1.35534 13.3207 1.168
5336.44 1.36156 1.35835 13.3059 1.16805
5336.88 1.36035 1.3604 13.2911 1.16809
5337.31 1.36102 1.36191 13.2683 1.16813
5337.75 1.36373 1.36322 13.245 1.16818
5338.19 1.36763 1.36446 13.2227 1.16822
5338.62 1.37085 1.3656 13.2005 1.16826
5339.06 1.37153 1.36643 13.2051 1.1683
5339.5 1.37032 1.3667 13.2155 1.16833
5339.93 1.36876 1.36625 13.2252 1.16837
5340.37 1.36721 1.36511 13.2347 1.16841
5340.81 1.36545 1.36354 13.2493 1.16844
5341.24 1.36303 1.36195 13.266 1.16847
5341.68 1.35944 1.36069 13.3088 1.1685
5342.12 1.35533 1.35999 13.3663 1.16853
5342.56 1.35209 1.35974 13.396 1.16856
5342.99 1.35028 1.35966 13.4055 1.16859
5343.43 1.34978 1.35948 13.4027 1.16862
5343.87 1.35022 1.35908 13.3889 1.16864
5344.3 1.35101 1.35859 13.3774 1.16867
5344.74 1.35208 1.35829 13.3685 1.16869
5345.18 1.35393 1.35852 13.3551 1.16872
5345.62 1.35661 1.35956 13.3351 1.16874
5346.05 1.35951 1.36154 13.3152 1.16876
5346.49 1.36198 1.36445 13.2952 1.16878
5346.93 1.3633 1.36816 13.2821 1.1688
5347.37 1.36346 1.37239 13.2858 1.16882
5347.8 1.36366 1.3768 13.2832 1.16884
5348.24 1.36484 1.38109 13.2607 1.16885
5348.68 1.36724 1.38508 13.2357 1.16887
5349.12 1.37091 1.38886 13.1992 1.16889
5349.55 1.37563 1.39272 13.1617 1.1689
5349.99 1.38116 1.39701 13.1162 1.16892
5350.43 1.38718 1.40195 13.0707 1.16893
5350.87 1.39338 1.40754 13.0219 1.16894
5351.3 1.39958 1.41355 12.9733 1.16896
5351.74 1.40564 1.41966 12.9214 1.16897
5352.18 1.41151 1.4256 12.8697 1.16898
5352.62 1.41727 1.43127 12.8103 1.16899
5353.06 1.42354 1.43675 12.751 1.169
5353.49 1.43087 1.44218 12.6875 1.16901
5353.93 1.4388 1.44769 12.624 1.16902
5354.37 1.44651 1.4533 12.5641 1.16903
5354.81 1.45308 1.45888 12.5052 1.16904
5355.25 1.45777 1.46422 12.465 1.16905
5355.68 1.46146 1.46903 12.4298 1.16906
5356.12 1.46562 1.47307 12.39 1.16907
5356.56 1.47044 1.47616 12.3486 1.16908
5357.0 1.47533 1.47831 12.3122 1.16909
5357.44 1.47952 1.47965 12.278 1.16909
5357.88 1.48213 1.48036 12.2674 1.1691
5358.31 1.48275 1.48062 12.2704 1.16911
5358.75 1.48138 1.48047 12.2849 1.16912
5359.19 1.47851 1.47987 12.3078 1.16913
5359.63 1.47507 1.47871 12.3343 1.16913
5360.07 1.47199 1.47689 12.3639 1.16914
5360.51 1.47013 1.47433 12.3904 1.16915
5360.95 1.46913 1.47098 12.4133 1.16916
5361.38 1.4674 1.46681 12.4401 1.16916
5361.82 1.46398 1.46183 12.4721 1.16917
5362.26 1.45882 1.45616 12.5076 1.16918
5362.7 1.45213 1.45001 12.5489 1.16919
5363.14 1.44438 1.44359 12.597 1.16919
5363.58 1.4363 1.43706 12.6594 1.1692
5364.02 1.429 1.43044 12.7191 1.16921
5364.46 1.42303 1.42363 12.7706 1.16922
5364.89 1.41779 1.4166 12.8221 1.16923
5365.33 1.41251 1.40937 12.8732 1.16924
5365.77 1.40624 1.40211 12.927 1.16925
5366.21 1.39858 1.39501 12.994 1.16926
5366.65 1.39048 1.38822 13.0621 1.16927
5367.09 1.38289 1.38181 13.1362 1.16928
5367.53 1.37606 1.37585 13.2103 1.16929
5367.97 1.37009 1.37043 13.2744 1.1693
5368.41 1.36494 1.36565 13.3382 1.16931
5368.85 1.36075 1.36164 13.3486 1.16933
5369.29 1.35831 1.35842 13.3591 1.16934
5369.73 1.35823 1.35598 13.3503 1.16935
5370.16 1.35961 1.35423 13.3409 1.16937
5370.6 1.36111 1.35315 13.3334 1.16938
5371.04 1.36132 1.35283 13.326 1.1694
5371.48 1.35925 1.35337 13.3549 1.16941
5371.92 1.35632 1.35487 13.3894 1.16943
5372.36 1.35469 1.35732 13.3884 1.16945
5372.8 1.35512 1.3606 13.3797 1.16947
5373.24 1.35772 1.3645 13.3505 1.16949
5373.68 1.36222 1.36879 13.3155 1.16951
5374.12 1.3681 1.37329 13.2572 1.16953
5374.56 1.37432 1.37793 13.1906 1.16955
5375.0 1.37968 1.38274 13.1406 1.16957
5375.44 1.38413 1.38777 13.0984 1.1696
5375.88 1.38841 1.39302 13.059 1.16962
5376.32 1.39344 1.39836 13.0212 1.16965
5376.76 1.40013 1.40356 12.9674 1.16967
5377.2 1.40755 1.40841 12.9026 1.1697
5377.64 1.4134 1.41276 12.8625 1.16973
5378.08 1.41689 1.4166 12.8427 1.16976
5378.52 1.41862 1.41997 12.8326 1.16979
5378.96 1.41957 1.42291 12.8322 1.16982
5379.4 1.42103 1.42542 12.8297 1.16985
5379.84 1.42281 1.42745 12.8245 1.16989
5380.28 1.4231 1.42896 12.8261 1.16992
5380.72 1.42147 1.42998 12.8373 1.16996
5381.16 1.41937 1.43058 12.8483 1.17
5381.6 1.41857 1.43087 12.8589 1.17004
5382.04 1.42107 1.4309 12.8559 1.17008
5382.48 1.42638 1.43068 12.8242 1.17012
5382.92 1.42991 1.4301 12.8048 1.17016
5383.36 1.42893 1.42905 12.8172 1.17021
5383.8 1.42467 1.42748 12.8337 1.17025
5384.24 1.4193 1.42545 12.8633 1.1703
5384.68 1.41611 1.42306 12.8878 1.17035
5385.12 1.41645 1.42045 12.8895 1.1704
5385.56 1.41704 1.41765 12.8945 1.17045
5386.01 1.41514 1.4146 12.9176 1.17051
5386.45 1.41115 1.41125 12.9417 1.17056
5386.89 1.40626 1.40763 12.9732 1.17062
5387.33 1.40255 1.40384 13.0037 1.17068
5387.77 1.40124 1.40004 13.0161 1.17073
5388.21 1.40025 1.39636 13.0291 1.1708
5388.65 1.39737 1.39285 13.0725 1.17086
5389.09 1.39268 1.38947 13.1161 1.17092
5389.53 1.38697 1.38611 13.1724 1.17098
5389.97 1.38175 1.38265 13.2295 1.17105
5390.41 1.37827 1.37899 13.2558 1.17112
5390.86 1.37554 1.37503 13.2801 1.17119
5391.3 1.3721 1.37075 13.3186 1.17125
5391.74 1.36762 1.36617 13.3588 1.17133
5392.18 1.36222 1.3613 13.4071 1.1714
5392.62 1.35643 1.35625 13.4569 1.17147
5393.06 1.35092 1.35119 13.504 1.17154
5393.5 1.34613 1.34635 13.5507 1.17162
5393.94 1.34241 1.34202 13.5832 1.17169
5394.38 1.33968 1.33836 13.6117 1.17177
5394.83 1.33767 1.33541 13.6324 1.17185
5395.27 1.3359 1.33301 13.6504 1.17193
5395.71 1.33382 1.3309 13.678 1.17201
5396.15 1.33136 1.32875 13.7097 1.17209
5396.59 1.32875 1.32638 13.7383 1.17217
5397.03 1.32629 1.32383 13.7652 1.17225
5397.48 1.3243 1.32137 13.7879 1.17233
5397.92 1.32315 1.31937 13.8081 1.17242
5398.36 1.3232 1.31809 13.8057 1.1725
5398.8 1.32413 1.31748 13.7873 1.17259
5399.24 1.32511 1.31717 13.7775 1.17267
5399.68 1.32559 1.3166 13.775 1.17276
5400.13 1.32529 1.31535 13.7797 1.17285
5400.57 1.32415 1.31332 13.7912 1.17294
5401.01 1.32229 1.31078 13.8183 1.17302
5401.45 1.31953 1.30815 13.8626 1.17311
5401.89 1.31536 1.30584 13.9038 1.1732
5402.33 1.30989 1.30402 13.9407 1.17329
5402.78 1.304 1.30262 13.9747 1.17339
5403.22 1.29915 1.30141 14.0039 1.17348
5403.66 1.29739 1.30015 14.0191 1.17357
5404.1 1.29866 1.29869 14.0097 1.17366
5404.55 1.29984 1.29699 14.0125 1.17375
5404.99 1.29889 1.29517 14.0405 1.17385
5405.43 1.29585 1.29341 14.0781 1.17394
5405.87 1.29198 1.29195 14.1393 1.17403
5406.31 1.29039 1.29101 14.1732 1.17413
5406.76 1.29243 1.29079 14.1282 1.17422
5407.2 1.2958 1.29142 14.0872 1.17432
5407.64 1.29856 1.29293 14.0597 1.17441
5408.08 1.30033 1.29525 14.0355 1.17451
5408.53 1.30161 1.29822 14.0252 1.1746
5408.97 1.30442 1.30164 14.0063 1.1747
5409.41 1.30992 1.3054 13.9405 1.17479
5409.85 1.31644 1.30947 13.8773 1.17489
5410.3 1.32229 1.31398 13.8295 1.17498
5410.74 1.32691 1.31909 13.7837 1.17508
5411.18 1.33028 1.32495 13.7559 1.17518
5411.63 1.33356 1.33156 13.7267 1.17527
5412.07 1.3379 1.33873 13.6723 1.17537
5412.51 1.34377 1.34617 13.6179 1.17546
5412.95 1.35135 1.3536 13.5522 1.17556
5413.4 1.36022 1.3608 13.4871 1.17566
5413.84 1.36955 1.36773 13.4094 1.17575
5414.28 1.37739 1.37442 13.3323 1.17585
5414.73 1.38222 1.38092 13.2845 1.17594
5415.17 1.3858 1.38722 13.2382 1.17604
5415.61 1.39052 1.39318 13.1763 1.17613
5416.05 1.3973 1.39867 13.1136 1.17623
5416.5 1.4061 1.40359 13.0277 1.17632
5416.94 1.41422 1.40792 12.9399 1.17641
5417.38 1.41869 1.41174 12.9235 1.17651
5417.83 1.4201 1.41512 12.9179 1.1766
5418.27 1.42034 1.41811 12.9201 1.17669
5418.71 1.4206 1.42067 12.9238 1.17679
5419.16 1.42163 1.42265 12.9281 1.17688
5419.6 1.42264 1.4239 12.9325 1.17697
5420.04 1.42235 1.42433 12.9417 1.17706
5420.49 1.42108 1.42395 12.9522 1.17715
5420.93 1.41985 1.42297 12.9547 1.17724
5421.37 1.41934 1.42171 12.9545 1.17733
5421.82 1.42 1.42046 12.9391 1.17742
5422.26 1.42156 1.41944 12.9177 1.17751
5422.71 1.4233 1.41863 12.9093 1.1776
5423.15 1.4244 1.41786 12.9068 1.17769
5423.59 1.42403 1.41682 12.913 1.17777
5424.04 1.42183 1.41525 12.9235 1.17786
5424.48 1.41785 1.41308 12.9467 1.17794
5424.92 1.41385 1.41039 12.9774 1.17803
5425.37 1.41257 1.40739 12.9841 1.17811
5425.81 1.41415 1.40427 12.9751 1.17819
5426.26 1.41672 1.40112 12.9709 1.17828
5426.7 1.41842 1.39796 12.9701 1.17836
5427.14 1.41748 1.39479 12.9942 1.17844
5427.59 1.41328 1.39164 13.0386 1.17852
5428.03 1.4062 1.38856 13.099 1.17859
5428.48 1.39724 1.3855 13.174 1.17867
5428.92 1.38793 1.38238 13.2446 1.17875
5429.36 1.37976 1.37915 13.3105 1.17882
5429.81 1.37409 1.37591 13.3488 1.1789
5430.25 1.37147 1.37294 13.3556 1.17897
5430.7 1.37158 1.3705 13.3533 1.17904
5431.14 1.37345 1.36872 13.3398 1.17912
5431.59 1.37548 1.36743 13.3278 1.17919
5432.03 1.37615 1.36633 13.318 1.17925
5432.48 1.37414 1.36521 13.3247 1.17932
5432.92 1.37023 1.36413 13.3569 1.17939
5433.36 1.36795 1.36343 13.3733 1.17945
5433.81 1.36901 1.3635 13.3627 1.17952
5434.25 1.37237 1.36462 13.3471 1.17958
5434.7 1.37638 1.36684 13.3218 1.17964
5435.14 1.37886 1.37 13.3034 1.1797
5435.59 1.37957 1.37387 13.2993 1.17976
5436.03 1.38156 1.37822 13.2846 1.17982
5436.48 1.38646 1.38288 13.245 1.17988
5436.92 1.39304 1.38772 13.2025 1.17993
5437.37 1.39934 1.39267 13.1523 1.17998
5437.81 1.40258 1.39769 13.1158 1.18003
5438.26 1.40207 1.40277 13.119 1.18009
5438.7 1.40125 1.40791 13.116 1.18013
5439.15 1.40284 1.41302 13.0916 1.18018
5439.59 1.40705 1.41791 13.0637 1.18023
5440.04 1.41328 1.42234 13.0218 1.18027
5440.48 1.4198 1.42604 12.9797 1.18031
5440.93 1.42519 1.42883 12.9365 1.18035
5441.37 1.42906 1.43066 12.8975 1.18039
5441.82 1.43128 1.43154 12.8795 1.18043
5442.26 1.43195 1.43158 12.8644 1.18046
5442.71 1.43135 1.43087 12.8664 1.1805
5443.15 1.43002 1.42957 12.8705 1.18053
5443.6 1.42841 1.42784 12.8898 1.18056
5444.04 1.42637 1.42581 12.9104 1.18059
5444.49 1.42379 1.42357 12.9417 1.18062
5444.93 1.42073 1.42108 12.974 1.18064
5445.38 1.41739 1.41825 13.0165 1.18066
5445.83 1.41414 1.41498 13.0576 1.18069
5446.27 1.41122 1.4113 13.072 1.18071
5446.72 1.40816 1.40742 13.0868 1.18073
5447.16 1.40448 1.40366 13.1119 1.18074
5447.61 1.40019 1.40038 13.1372 1.18076
5448.05 1.39556 1.39777 13.1744 1.18077
5448.5 1.39149 1.39572 13.2117 1.18079
5448.95 1.3887 1.39396 13.2343 1.1808
5449.39 1.38666 1.39209 13.2569 1.18081
5449.84 1.38462 1.38989 13.2867 1.18081
5450.28 1.38219 1.38739 13.3167 1.18082
5450.73 1.37917 1.3848 13.3572 1.18082
5451.18 1.37594 1.38245 13.3983 1.18083
5451.62 1.3729 1.38066 13.4137 1.18083
5452.07 1.37003 1.37958 13.4275 1.18083
5452.51 1.3672 1.3792 13.4375 1.18083
5452.96 1.36456 1.37939 13.4474 1.18083
5453.41 1.36252 1.37992 13.4556 1.18082
5453.85 1.36235 1.38058 13.4638 1.18082
5454.3 1.36516 1.38122 13.4127 1.18081
5454.74 1.36964 1.38173 13.3549 1.1808
5455.19 1.37374 1.38207 13.3112 1.1808
5455.64 1.376 1.38226 13.2696 1.18078
5456.08 1.37549 1.38241 13.2762 1.18077
5456.53 1.37343 1.38267 13.2906 1.18076
5456.98 1.37164 1.38311 13.2921 1.18075
5457.42 1.37081 1.3837 13.2911 1.18073
5457.87 1.37113 1.38432 13.2844 1.18071
5458.32 1.37257 1.38484 13.2765 1.18069
5458.76 1.37492 1.3852 13.262 1.18067
5459.21 1.37762 1.3855 13.2459 1.18065
5459.66 1.37994 1.38587 13.245 1.18063
5460.1 1.38146 1.38644 13.248 1.18061
5460.55 1.38193 1.38723 13.2568 1.18058
5461.0 1.38129 1.38814 13.2673 1.18056
5461.44 1.37972 1.38907 13.2809 1.18053
5461.89 1.37838 1.3899 13.2954 1.1805
5462.34 1.37874 1.39054 13.2901 1.18048
5462.78 1.38078 1.39094 13.2784 1.18044
5463.23 1.38369 1.39108 13.2621 1.18041
5463.68 1.38631 1.39113 13.2443 1.18038
5464.12 1.38746 1.39132 13.2467 1.18035
5464.57 1.3874 1.39189 13.2569 1.18031
5465.02 1.38715 1.39294 13.2609 1.18028
5465.47 1.38718 1.39424 13.2623 1.18024
5465.91 1.38768 1.39545 13.2594 1.1802
5466.36 1.38863 1.39624 13.2546 1.18017
5466.81 1.38992 1.39645 13.242 1.18013
5467.26 1.39126 1.39614 13.2261 1.18009
5467.7 1.3923 1.39547 13.2146 1.18004
5468.15 1.39284 1.39452 13.2052 1.18
5468.6 1.39281 1.39333 13.1999 1.17996
5469.04 1.39226 1.39185 13.1965 1.17991
5469.49 1.39132 1.39009 13.2086 1.17987
5469.94 1.38988 1.38805 13.2289 1.17982
5470.39 1.38768 1.38582 13.2531 1.17977
5470.83 1.38477 1.38344 13.2796 1.17973
5471.28 1.38145 1.38093 13.3097 1.17968
5471.73 1.37845 1.37823 13.3419 1.17963
5472.18 1.37668 1.37524 13.3612 1.17958
5472.63 1.37505 1.37193 13.3726 1.17953
5473.07 1.37119 1.36837 13.3941 1.17947
5473.52 1.3646 1.36475 13.4221 1.17942
5473.97 1.35643 1.36141 13.4624 1.17937
5474.42 1.35102 1.35857 13.5111 1.17931
5474.86 1.35456 1.35634 13.4634 1.17926
5475.31 1.36486 1.35459 13.3499 1.1792
5475.76 1.37324 1.35301 13.2875 1.17915
5476.21 1.37418 1.35126 13.261 1.17909
5476.66 1.36525 1.34917 13.3219 1.17903
5477.1 1.35084 1.34689 13.4492 1.17897
5477.55 1.34049 1.34483 13.5291 1.17891
5478.0 1.33714 1.34343 13.5715 1.17885
5478.45 1.33801 1.34298 13.5986 1.17879
5478.9 1.34047 1.34343 13.6135 1.17873
5479.35 1.34228 1.34448 13.6132 1.17867
5479.79 1.34318 1.34581 13.6005 1.1786
5480.24 1.34459 1.34722 13.5857 1.17854
5480.69 1.34687 1.34877 13.5692 1.17848
5481.14 1.34935 1.34554 13.5543 1.17841
5481.59 1.35146 1.34675 13.5409 1.17835
5482.04 1.35278 1.34902 13.5335 1.17828
5482.49 1.35377 1.35159 13.5314 1.17822
5482.93 1.35563 1.35405 13.5185 1.17815
5483.38 1.35878 1.35632 13.4957 1.17808
5483.83 1.36285 1.35852 13.4437 1.17801
5484.28 1.36732 1.36072 13.3644 1.17795
5484.73 1.37156 1.36296 13.1847 1.17788
5485.18 1.37556 1.36524 12.914 1.17781
5485.63 1.37991 1.36757 12.2953 1.17774
5486.07 1.38446 1.36984 11.406 1.17767
5486.52 1.38825 1.37174 10.4893 1.1776
5486.97 1.39014 1.37283 9.57306 1.17753
5487.42 1.38892 1.37265 8.877 1.17746
5487.87 1.38659 1.37103 8.35282 1.17739
5488.32 1.38825 1.36783 0.0 1.17732
5488.77 1.39544 1.36654 0.0 1.17724
5489.22 1.40577 1.36595 0.0 1.17717
5489.67 1.41458 1.36518 0.0 1.1771
5490.12 1.41527 1.36361 0.0 1.17703
5490.57 1.40779 1.3608 0.0 1.17695
5491.01 1.39902 1.35655 0.0 1.17688
5491.46 1.39325 1.35081 0.0 1.1768
5491.91 1.39164 1.34356 0.0 1.17673
5492.36 1.39289 1.33458 0.0 1.17666
5492.81 1.3933 1.32361 0.0 1.17658
5493.26 1.39211 1.31064 0.0 1.17651
5493.71 1.39175 1.296 0.0 1.17643
5494.16 1.39362 1.28017 0.0 1.17636
5494.61 1.39775 1.26301 0.0 1.17628
5495.06 1.40249 1.24343 0.0 1.17621
5495.51 1.40454 1.21978 0.0 1.17613
5495.96 1.40318 1.19096 0.0 1.17606
5496.41 1.40062 1.15727 0.0 1.17598
5496.86 1.39865 1.11977 0.0 1.1759
5497.31 1.39849 1.07908 0.0 1.17583
5497.76 1.40009 1.03544 0.0 1.17575
5498.21 1.40215 0.989599 0.0 1.17568
5498.66 1.40383 0.942996 0.0 1.1756
5499.11 1.40489 0.896671 0.0 1.17552
5499.56 1.4054 0.849866 0.0 1.17545
