"Wavelength (A)" Specta "Best Fitting Model" "Non-parm Extinction Curve" "Non-param Adjusted Continuum"
4051.13 0.638452 0.299587 0.0 0.941151
4051.46 0.641728 0.332172 0.0 0.940624
4051.79 0.643482 0.363805 0.0 0.940097
4052.13 0.643471 0.393721 0.0 0.93957
4052.46 0.642373 0.421761 0.0 0.939043
4052.79 0.640934 0.448303 0.0 0.938517
4053.12 0.639519 0.473673 0.0 0.937991
4053.45 0.63817 0.497558 0.0 0.937465
4053.78 0.636866 0.518891 0.0 0.936939
4054.12 0.635256 0.536472 0.0 0.936414
4054.45 0.63286 0.549931 0.0 0.935889
4054.78 0.629389 0.560019 0.0 0.935365
4055.11 0.625053 0.567957 0.0 0.934841
4055.44 0.620147 0.574648 0.0 0.934318
4055.77 0.615058 0.580363 0.0 0.933795
4056.11 0.610281 0.584914 0.0 0.933273
4056.44 0.606278 0.588074 0.0 0.932752
4056.77 0.60308 0.589914 0.0 0.932231
4057.1 0.600478 0.590851 0.0 0.931712
4057.43 0.598263 0.591445 0.0 0.931193
4057.77 0.596233 0.592165 0.0 0.930675
4058.1 0.594187 0.593253 0.0 0.930158
4058.43 0.592033 0.594559 0.0 0.929642
4058.76 0.589856 0.59549 0.0 0.929127
4059.09 0.587761 0.595412 0.0 0.928614
4059.43 0.585829 0.594253 10.7552 0.928101
4059.76 0.584125 0.592481 10.7907 0.927589
4060.09 0.582698 0.590236 10.8268 0.927079
4060.42 0.581498 0.58758 10.8632 0.92657
4060.76 0.580442 0.584547 10.8959 0.926063
4061.09 0.579447 0.581266 10.9092 0.925556
4061.42 0.578435 0.578091 10.9224 0.925052
4061.75 0.577327 0.575453 10.9333 0.924548
4062.08 0.576047 0.573126 10.9413 0.924047
4062.42 0.574518 0.570291 10.9493 0.923546
4062.75 0.572661 0.566842 10.9728 0.923048
4063.08 0.570371 0.563426 11.0015 0.922551
4063.41 0.567532 0.560535 11.0313 0.922056
4063.75 0.564253 0.558366 11.0827 0.921562
4064.08 0.561444 0.557181 11.1344 0.92107
4064.41 0.56018 0.560245 11.1627 0.920581
4064.74 0.560848 0.5604 11.1442 0.920093
4065.08 0.562771 0.561328 11.1257 0.919607
4065.41 0.565219 0.563031 11.0818 0.919123
4065.74 0.567933 0.565508 11.0233 0.918641
4066.07 0.570994 0.568724 10.9652 0.918161
4066.41 0.574452 0.57258 10.9194 0.917684
4066.74 0.578156 0.576894 10.8749 0.917208
4067.07 0.581893 0.581429 10.8327 0.916735
4067.41 0.585465 0.585925 10.7982 0.916264
4067.74 0.588704 0.590135 10.7638 0.915795
4068.07 0.591454 0.593864 10.7287 0.915329
4068.4 0.593728 0.596986 10.6928 0.914866
4068.74 0.595702 0.599452 10.6571 0.914404
4069.07 0.597535 0.601271 10.6246 0.913945
4069.4 0.599221 0.602484 10.5929 0.913489
4069.74 0.600681 0.603158 10.5635 0.913036
4070.07 0.601782 0.603388 10.5516 0.912585
4070.4 0.602241 0.603276 10.5398 0.912137
4070.73 0.601755 0.602927 10.5413 0.911691
4071.07 0.600429 0.602437 10.5626 0.911249
4071.4 0.598885 0.601876 10.5839 0.910809
4071.73 0.597757 0.601268 10.5739 0.910372
4072.07 0.597418 0.600585 10.5507 0.909938
4072.4 0.598089 0.599778 10.5275 0.909507
4072.73 0.599794 0.598795 10.506 0.909079
4073.07 0.601764 0.597608 10.4846 0.908655
4073.4 0.603038 0.596241 10.4753 0.908233
4073.73 0.603075 0.594758 10.4944 0.907815
4074.07 0.602046 0.593248 10.5135 0.907399
4074.4 0.600197 0.591795 10.5415 0.906988
4074.73 0.597863 0.590453 10.5756 0.906579
4075.07 0.595445 0.589234 10.6098 0.906174
4075.4 0.593296 0.588123 10.6395 0.905772
4075.73 0.591464 0.587112 10.6687 0.905374
4076.07 0.5899 0.586223 10.6973 0.904979
4076.4 0.588576 0.585532 10.7231 0.904588
4076.73 0.587518 0.585176 10.7491 0.9042
4077.07 0.586761 0.585321 10.774 0.903817
4077.4 0.586365 0.586116 10.7979 0.903436
4077.73 0.586413 0.587688 10.8218 0.90306
4078.07 0.58701 0.590116 10.8204 0.902687
4078.4 0.588404 0.593412 10.8129 0.902319
4078.74 0.590902 0.597531 10.7955 0.901954
4079.07 0.594851 0.602387 10.6969 0.901593
4079.4 0.600705 0.607852 10.5997 0.901236
4079.74 0.60892 0.613736 10.4735 0.900883
4080.07 0.619243 0.619818 10.3069 0.900535
4080.4 0.630529 0.625863 10.1442 0.90019
4080.74 0.641596 0.631645 10.0098 0.89985
4081.07 0.651503 0.636969 9.8875 0.899514
4081.41 0.65944 0.641718 9.76923 0.899182
4081.74 0.664774 0.645845 9.74345 0.898854
4082.07 0.667545 0.649369 9.71776 0.898531
4082.41 0.667951 0.652354 9.71621 0.898213
4082.74 0.666394 0.654894 9.76503 0.897898
4083.08 0.663607 0.657083 9.81423 0.897589
4083.41 0.660347 0.659018 9.86596 0.897284
4083.74 0.657364 0.660813 9.91939 0.896983
4084.08 0.655399 0.662585 9.97326 0.896687
4084.41 0.655098 0.664457 9.97149 0.896396
4084.75 0.656644 0.666554 9.96591 0.89611
4085.08 0.660074 0.668988 9.95183 0.895828
4085.42 0.664821 0.671806 9.91141 0.895552
4085.75 0.669118 0.675005 9.87123 0.89528
4086.08 0.671187 0.678546 9.84204 0.895013
4086.42 0.671627 0.682339 9.82172 0.894751
4086.75 0.673119 0.686267 9.80146 0.894495
4087.09 0.677909 0.690215 9.72492 0.894243
4087.42 0.685106 0.694075 9.64017 0.893996
4087.76 0.692631 0.697732 9.56294 0.893755
4088.09 0.698909 0.701069 9.51831 0.893519
4088.42 0.703602 0.703973 9.47399 0.893288
4088.76 0.70657 0.706336 9.44788 0.893063
4089.09 0.707966 0.708074 9.44151 0.892843
4089.43 0.70826 0.709131 9.43514 0.892628
4089.76 0.707894 0.709486 9.44462 0.892419
4090.1 0.707009 0.709155 9.45843 0.892215
4090.43 0.705606 0.708174 9.47353 0.892017
4090.77 0.703703 0.706586 9.50042 0.891825
4091.1 0.701384 0.704434 9.52742 0.891638
4091.44 0.698742 0.701769 9.55997 0.891457
4091.77 0.695785 0.698633 9.6006 0.891282
4092.11 0.69241 0.695066 9.64149 0.891112
4092.44 0.688535 0.691102 9.68682 0.890949
4092.78 0.684316 0.686776 9.73411 0.890791
4093.11 0.680048 0.682106 9.7829 0.890639
4093.45 0.675812 0.677107 9.86689 0.890494
4093.78 0.670915 0.671785 9.95197 0.890354
4094.12 0.664504 0.666154 10.0444 0.89022
4094.45 0.656622 0.660239 10.1501 0.890093
4094.79 0.648659 0.654083 10.2575 0.889972
4095.12 0.642017 0.647742 10.339 0.889856
4095.46 0.636862 0.64128 10.407 0.889746
4095.79 0.632544 0.634751 10.4757 0.889643
4096.13 0.628406 0.628187 10.5529 0.889545
4096.46 0.623817 0.621613 10.6312 0.889452
4096.8 0.618154 0.615047 10.7208 0.889365
4097.13 0.611208 0.608517 10.8377 0.889284
4097.47 0.603487 0.602059 10.9565 0.889208
4097.8 0.595566 0.595718 11.0824 0.889137
4098.14 0.587906 0.589541 11.214 0.889071
4098.47 0.580875 0.583567 11.348 0.889011
4098.81 0.574772 0.577833 11.4491 0.888956
4099.14 0.569526 0.57238 11.5484 0.888905
4099.48 0.564951 0.567269 11.6452 0.88886
4099.81 0.560773 0.562576 11.7306 0.888819
4100.15 0.556536 0.558394 11.8169 0.888783
4100.48 0.551814 0.554828 11.9021 0.888751
4100.82 0.547031 0.551976 11.9864 0.888725
4101.16 0.543363 0.549919 12.0716 0.888702
4101.49 0.541798 0.548714 12.0824 0.888684
4101.83 0.542068 0.548397 12.0819 0.888671
4102.16 0.54344 0.548983 12.0769 0.888661
4102.5 0.545372 0.550486 12.0524 0.888656
4102.83 0.547763 0.552913 12.028 0.888654
4103.17 0.550579 0.556264 11.9888 0.888657
4103.51 0.553923 0.560512 11.9354 0.888664
4103.84 0.558033 0.565584 11.8825 0.888674
4104.18 0.563119 0.571348 11.7948 0.888688
4104.51 0.569166 0.577607 11.7009 0.888706
4104.85 0.576063 0.584125 11.6032 0.888727
4105.18 0.583662 0.590656 11.4787 0.888752
4105.52 0.591719 0.596984 11.3562 0.88878
4105.86 0.599967 0.602941 11.2342 0.888812
4106.19 0.607992 0.608407 11.1125 0.888846
4106.53 0.615213 0.613307 10.9927 0.888884
4106.86 0.621108 0.617608 10.9042 0.888925
4107.2 0.625678 0.621287 10.8246 0.888969
4107.54 0.629164 0.624333 10.753 0.889016
4107.87 0.631742 0.626756 10.7401 0.889065
4108.21 0.633391 0.628597 10.7273 0.889118
4108.54 0.634064 0.629917 10.7252 0.889173
4108.88 0.634011 0.630803 10.7372 0.88923
4109.22 0.633837 0.63137 10.7492 0.88929
4109.55 0.634117 0.631743 10.7431 0.889353
4109.89 0.634975 0.632035 10.7312 0.889417
4110.23 0.636305 0.632343 10.7184 0.889484
4110.56 0.637955 0.632746 10.6957 0.889553
4110.9 0.639627 0.633302 10.673 0.889624
4111.23 0.641002 0.634057 10.6544 0.889698
4111.57 0.641935 0.635049 10.6417 0.889773
4111.91 0.642505 0.636312 10.6291 0.889849
4112.24 0.642812 0.637864 10.6215 0.889928
4112.58 0.642973 0.639694 10.6159 0.890008
4112.92 0.643116 0.641761 10.61 0.89009
4113.25 0.643348 0.643997 10.5979 0.890173
4113.59 0.643697 0.646319 10.5857 0.890258
4113.93 0.644185 0.648638 10.5688 0.890344
4114.26 0.645145 0.650868 10.5438 0.890431
4114.6 0.647343 0.652942 10.5189 0.89052
4114.94 0.651425 0.6548 10.4652 0.890609
4115.27 0.656506 0.656374 10.3998 0.8907
4115.61 0.660803 0.657591 10.3363 0.890791
4115.95 0.662992 0.658383 10.3136 0.890883
4116.28 0.663476 0.65869 10.291 0.890976
4116.62 0.663049 0.658484 10.2791 0.89107
4116.96 0.662258 0.657787 10.2866 0.891164
4117.29 0.661286 0.656675 10.2941 0.891259
4117.63 0.660261 0.655258 10.3233 0.891354
4117.97 0.658985 0.653666 10.3628 0.891449
4118.3 0.657061 0.652019 10.4028 0.891545
4118.64 0.654254 0.650412 10.4671 0.891641
4118.98 0.650978 0.648902 10.532 0.891736
4119.32 0.647798 0.647515 10.5909 0.891832
4119.65 0.645123 0.646269 10.6378 0.891928
4119.99 0.643128 0.645181 10.685 0.892024
4120.33 0.641985 0.644278 10.6967 0.892119
4120.66 0.642077 0.643606 10.6912 0.892214
4121.0 0.643914 0.643213 10.6856 0.892309
4121.34 0.647531 0.643137 10.6576 0.892403
4121.68 0.651049 0.643384 10.6297 0.892496
4122.01 0.652148 0.643933 10.6123 0.892589
4122.35 0.650244 0.644738 10.6157 0.892681
4122.69 0.647432 0.645738 10.6191 0.892773
4123.02 0.645906 0.646867 10.6115 0.892863
4123.36 0.646268 0.648061 10.5985 0.892952
4123.7 0.648093 0.649244 10.5854 0.893041
4124.04 0.650823 0.650339 10.5693 0.893128
4124.37 0.653449 0.65126 10.5533 0.893214
4124.71 0.654854 0.651925 10.5465 0.893298
4125.05 0.654542 0.65227 10.5587 0.893381
4125.39 0.652981 0.652261 10.5708 0.893463
4125.72 0.650721 0.651895 10.6035 0.893543
4126.06 0.648286 0.651179 10.6468 0.893621
4126.4 0.646184 0.65011 10.6903 0.893698
4126.74 0.644811 0.648666 10.7127 0.893773
4127.07 0.644126 0.646805 10.7351 0.893846
4127.41 0.643973 0.644471 10.7522 0.893917
4127.75 0.644028 0.641626 10.7586 0.893985
4128.09 0.643704 0.638276 10.7649 0.894052
4128.43 0.642425 0.634473 10.8022 0.894117
4128.76 0.639989 0.63031 10.8551 0.894179
4129.1 0.636438 0.625896 10.9085 0.894238
4129.44 0.631892 0.621341 10.9708 0.894296
4129.78 0.626762 0.616742 11.0337 0.89435
4130.11 0.621525 0.61218 11.1046 0.894402
4130.45 0.616426 0.607737 11.1909 0.894452
4130.79 0.611353 0.603496 11.2782 0.894498
4131.13 0.60619 0.59955 11.377 0.894542
4131.47 0.601155 0.596008 11.4822 0.894582
4131.8 0.596673 0.592984 11.5884 0.89462
4132.14 0.593205 0.590578 11.6523 0.894654
4132.48 0.591332 0.588874 11.7167 0.894685
4132.82 0.591653 0.587946 11.7419 0.894713
4133.16 0.594006 0.587846 11.6939 0.894737
4133.5 0.597109 0.588607 11.6463 0.894758
4133.83 0.59969 0.590252 11.6101 0.894775
4134.17 0.60155 0.592785 11.579 0.894789
4134.51 0.603138 0.596175 11.548 0.894799
4134.85 0.604911 0.600338 11.5166 0.894805
4135.19 0.60732 0.605133 11.4854 0.894807
4135.53 0.610804 0.610366 11.4368 0.894805
4135.86 0.6153 0.615812 11.3591 0.8948
4136.2 0.62004 0.62125 11.2821 0.89479
4136.54 0.624272 0.626484 11.2075 0.894775
4136.88 0.627958 0.631354 11.1343 0.894757
4137.22 0.631472 0.635727 11.0619 0.894734
4137.56 0.635078 0.639482 10.9933 0.894707
4137.89 0.638655 0.642488 10.9253 0.894675
4138.23 0.641995 0.644613 10.8703 0.894638
4138.57 0.644702 0.645751 10.8348 0.894598
4138.91 0.646133 0.645841 10.7994 0.894553
4139.25 0.64572 0.644869 10.8167 0.894504
4139.59 0.643774 0.64287 10.8531 0.89445
4139.93 0.641073 0.639911 10.8918 0.894393
4140.26 0.638164 0.636072 10.9563 0.894332
4140.6 0.634834 0.631443 11.0213 0.894266
4140.94 0.630732 0.626134 11.095 0.894197
4141.28 0.625866 0.620288 11.1805 0.894124
4141.62 0.620685 0.614089 11.267 0.894048
4141.96 0.615639 0.607759 11.3484 0.893968
4142.3 0.610922 0.601544 11.4287 0.893884
4142.64 0.606602 0.595688 11.51 0.893797
4142.98 0.60262 0.590406 11.5924 0.893706
4143.31 0.598552 0.585864 11.6757 0.893612
4143.65 0.593924 0.582172 11.7627 0.893515
4143.99 0.588761 0.579384 11.8541 0.893414
4144.33 0.583654 0.577517 11.9466 0.893311
4144.67 0.579231 0.57656 12.0091 0.893204
4145.01 0.57618 0.576494 12.0642 0.893095
4145.35 0.575214 0.577285 12.1077 0.892982
4145.69 0.576658 0.578862 12.0806 0.892867
4146.03 0.579819 0.5811 12.0535 0.892749
4146.37 0.583839 0.583819 12.0052 0.892629
4146.71 0.58786 0.586804 11.9354 0.892505
4147.05 0.591014 0.589818 11.8661 0.89238
4147.38 0.592607 0.592644 11.8438 0.892251
4147.72 0.593075 0.595117 11.8304 0.892121
4148.06 0.593302 0.597138 11.8161 0.891988
4148.4 0.593842 0.598669 11.7977 0.891853
4148.74 0.594472 0.599702 11.7794 0.891716
4149.08 0.594867 0.600259 11.7736 0.891576
4149.42 0.59489 0.600376 11.7786 0.891435
4149.76 0.594569 0.6001 11.7837 0.891292
4150.1 0.593958 0.599483 11.7977 0.891147
4150.44 0.59322 0.598593 11.8128 0.891
4150.78 0.592557 0.597509 11.828 0.890851
4151.12 0.592007 0.596304 11.8432 0.890701
4151.46 0.591281 0.595036 11.8584 0.890549
4151.8 0.590057 0.593744 11.8789 0.890396
4152.14 0.588148 0.592454 11.9032 0.890241
4152.48 0.585471 0.59118 11.9275 0.890085
4152.82 0.582141 0.589939 11.974 0.889928
4153.16 0.579225 0.588756 12.0222 0.88977
4153.5 0.578072 0.58767 12.0554 0.88961
4153.84 0.579144 0.586737 12.0499 0.889449
4154.18 0.581344 0.58602 12.0445 0.889288
4154.52 0.58348 0.585584 12.0311 0.889125
4154.86 0.585174 0.585493 12.0133 0.888962
4155.2 0.586623 0.585802 11.9954 0.888798
4155.54 0.588 0.58655 11.9776 0.888633
4155.88 0.589345 0.587769 11.9597 0.888467
4156.22 0.590664 0.589488 11.9376 0.888301
4156.56 0.592056 0.591723 11.9074 0.888135
4156.9 0.593758 0.594475 11.8773 0.887968
4157.24 0.596008 0.597729 11.8277 0.887801
4157.58 0.598959 0.601436 11.7699 0.887634
4157.92 0.602712 0.605515 11.7115 0.887466
4158.26 0.607265 0.609872 11.6338 0.887299
4158.6 0.612265 0.614414 11.5569 0.887131
4158.94 0.617286 0.619049 11.4854 0.886963
4159.28 0.621919 0.623698 11.4217 0.886796
4159.62 0.625782 0.628292 11.3584 0.886629
4159.96 0.628622 0.632755 11.3216 0.886462
4160.3 0.631282 0.637004 11.2931 0.886295
4160.64 0.635149 0.640957 11.2579 0.886129
4160.98 0.640817 0.644536 11.1721 0.885963
4161.32 0.646616 0.647669 11.0873 0.885798
4161.66 0.650529 0.65029 11.0421 0.885634
4162.0 0.651925 0.652345 11.0403 0.88547
4162.34 0.651653 0.653803 11.0385 0.885307
4162.68 0.650567 0.654647 11.062 0.885145
4163.02 0.64901 0.654892 11.0909 0.884984
4163.36 0.647121 0.654583 11.1227 0.884824
4163.7 0.644981 0.653785 11.1671 0.884665
4164.05 0.642547 0.652558 11.2119 0.884507
4164.39 0.639768 0.650951 11.2588 0.88435
4164.73 0.636859 0.649 11.3077 0.884195
4165.07 0.634264 0.646729 11.3569 0.884041
4165.41 0.632329 0.644169 11.3923 0.883888
4165.75 0.63081 0.641368 11.4263 0.883737
4166.09 0.62927 0.638404 11.4611 0.883588
4166.43 0.627408 0.635372 11.4976 0.88344
4166.77 0.625176 0.632367 11.5342 0.883294
4167.11 0.622544 0.629464 11.5883 0.88315
4167.45 0.619347 0.626703 11.6532 0.883008
4167.79 0.615326 0.624089 11.7187 0.882868
4168.14 0.610514 0.621595 11.7836 0.882729
4168.48 0.6062 0.619162 11.8491 0.882593
4168.82 0.603976 0.616716 11.8987 0.882459
4169.16 0.604232 0.61419 11.9171 0.882328
4169.5 0.605544 0.611529 11.9356 0.882198
4169.84 0.606403 0.608691 11.9573 0.882072
4170.18 0.605951 0.60565 11.9803 0.881947
4170.52 0.603704 0.602397 12.0055 0.881825
4170.86 0.599569 0.598944 12.0578 0.881706
4171.21 0.594704 0.595321 12.1105 0.881589
4171.55 0.590491 0.591595 12.1628 0.881476
4171.89 0.587215 0.587865 12.2144 0.881365
4172.23 0.583852 0.584258 12.2663 0.881257
4172.57 0.579508 0.580895 12.346 0.881152
4172.91 0.574847 0.577871 12.4338 0.88105
4173.25 0.571242 0.575245 12.5115 0.880951
4173.6 0.569546 0.573041 12.5311 0.880856
4173.94 0.569298 0.571274 12.5508 0.880763
4174.28 0.569837 0.569961 12.5621 0.880675
4174.62 0.570582 0.569124 12.5657 0.880589
4174.96 0.571028 0.568788 12.5693 0.880507
4175.3 0.570814 0.568959 12.578 0.880429
4175.64 0.570361 0.569604 12.5873 0.880354
4175.99 0.570358 0.570641 12.5919 0.880283
4176.33 0.571236 0.571957 12.5822 0.880216
4176.67 0.572918 0.573445 12.5725 0.880153
4177.01 0.57524 0.57501 12.5604 0.880094
4177.35 0.577618 0.576592 12.5467 0.880038
4177.7 0.579165 0.578178 12.5331 0.879987
4178.04 0.579247 0.579782 12.5664 0.87994
4178.38 0.57833 0.581416 12.6005 0.879897
4178.72 0.577168 0.583086 12.632 0.879859
4179.06 0.576541 0.584789 12.6586 0.879825
4179.4 0.577271 0.586507 12.6853 0.879795
4179.75 0.580038 0.588219 12.6274 0.87977
4180.09 0.584152 0.589914 12.5376 0.87975
4180.43 0.588157 0.591602 12.4526 0.879734
4180.77 0.59101 0.593293 12.4072 0.879723
4181.11 0.592967 0.594993 12.362 0.879717
4181.46 0.594528 0.596699 12.3189 0.879716
4181.8 0.596089 0.598395 12.2781 0.87972
4182.14 0.597926 0.600051 12.2374 0.879729
4182.48 0.600258 0.601639 12.1955 0.879742
4182.83 0.602941 0.603138 12.1534 0.87976
4183.17 0.605681 0.604535 12.1147 0.879783
4183.51 0.608205 0.605814 12.089 0.879811
4183.85 0.610292 0.606946 12.0633 0.879843
4184.19 0.611737 0.60789 12.0571 0.87988
4184.54 0.612454 0.608601 12.0655 0.879921
4184.88 0.612459 0.609049 12.0739 0.879967
4185.22 0.611829 0.609226 12.0964 0.880017
4185.56 0.610909 0.609161 12.1198 0.880071
4185.91 0.610127 0.608931 12.1362 0.88013
4186.25 0.609977 0.608641 12.1369 0.880193
4186.59 0.61106 0.608391 12.1377 0.88026
4186.93 0.613884 0.608268 12.0935 0.880332
4187.28 0.617823 0.608326 12.0289 0.880407
4187.62 0.621548 0.608579 11.9667 0.880487
4187.96 0.624075 0.60902 11.9349 0.88057
4188.3 0.625619 0.609646 11.9032 0.880657
4188.65 0.626646 0.610469 11.8793 0.880749
4188.99 0.627631 0.611524 11.8655 0.880844
4189.33 0.629054 0.612859 11.8517 0.880943
4189.68 0.63127 0.614511 11.8303 0.881046
4190.02 0.633709 0.616479 11.807 0.881152
4190.36 0.635389 0.618713 11.788 0.881262
4190.7 0.635714 0.621106 11.7878 0.881376
4191.05 0.635001 0.623508 11.7877 0.881493
4191.39 0.633697 0.625744 11.8027 0.881613
4191.73 0.632114 0.627644 11.83 0.881737
4192.08 0.630453 0.629055 11.8575 0.881865
4192.42 0.628909 0.62986 11.8868 0.881995
4192.76 0.627682 0.629988 11.9164 0.882129
4193.1 0.626965 0.629404 11.9482 0.882267
4193.45 0.626547 0.628116 11.9848 0.882407
4193.79 0.625539 0.626162 12.0215 0.88255
4194.13 0.623094 0.623602 12.0719 0.882697
4194.48 0.619503 0.620504 12.1289 0.882846
4194.82 0.615767 0.616943 12.1853 0.882999
4195.16 0.612726 0.612991 12.226 0.883154
4195.51 0.610656 0.608713 12.267 0.883313
4195.85 0.609687 0.604173 12.301 0.883474
4196.19 0.609049 0.599442 12.326 0.883638
4196.54 0.606914 0.594603 12.351 0.883804
4196.88 0.601767 0.58976 12.4528 0.883973
4197.22 0.594732 0.58504 12.5733 0.884145
4197.57 0.588056 0.580593 12.6882 0.884319
4197.91 0.583146 0.576574 12.7738 0.884496
4198.25 0.579508 0.573116 12.8603 0.884675
4198.6 0.576418 0.570315 12.9225 0.884857
4198.94 0.573726 0.568219 12.9663 0.885041
4199.28 0.571756 0.566829 13.0104 0.885227
4199.63 0.570813 0.566098 13.008 0.885416
4199.97 0.571062 0.565976 13.0035 0.885607
4200.32 0.572624 0.56644 12.9875 0.885799
4200.66 0.575358 0.567489 12.9488 0.885994
4201.0 0.578721 0.569148 12.9103 0.886191
4201.35 0.582159 0.571455 12.8681 0.88639
4201.69 0.585354 0.574435 12.8246 0.886591
4202.03 0.588116 0.578059 12.7822 0.886794
4202.38 0.590474 0.582269 12.7487 0.886998
4202.72 0.593086 0.586981 12.7154 0.887205
4203.07 0.596699 0.592101 12.6684 0.887413
4203.41 0.601297 0.597545 12.6072 0.887623
4203.75 0.60607 0.603254 12.5464 0.887834
4204.1 0.610328 0.609181 12.4695 0.888047
4204.44 0.614331 0.615269 12.3907 0.888261
4204.79 0.618695 0.621457 12.3112 0.888477
4205.13 0.623857 0.627665 12.2283 0.888694
4205.47 0.629909 0.633792 12.1463 0.888913
4205.82 0.636867 0.639728 12.0613 0.889133
4206.16 0.644292 0.645379 11.9749 0.889354
4206.51 0.651427 0.650664 11.8898 0.889577
4206.85 0.657602 0.655509 11.8256 0.8898
4207.19 0.662508 0.659854 11.7619 0.890025
4207.54 0.665933 0.663646 11.7099 0.890251
4207.88 0.667987 0.666828 11.6747 0.890477
4208.23 0.669196 0.669361 11.6396 0.890705
4208.57 0.670071 0.671239 11.613 0.890934
4208.92 0.670774 0.672497 11.5886 0.891163
4209.26 0.671311 0.673206 11.5687 0.891393
4209.6 0.671498 0.673461 11.569 0.891624
4209.95 0.670709 0.673342 11.5694 0.891856
4210.29 0.66831 0.672887 11.606 0.892088
4210.64 0.664731 0.672093 11.6712 0.892321
4210.98 0.6613 0.670923 11.7369 0.892554
4211.33 0.659042 0.66934 11.7629 0.892788
4211.67 0.657424 0.667333 11.7868 0.893023
4212.02 0.655471 0.664948 11.8186 0.893257
4212.36 0.652711 0.662286 11.866 0.893492
4212.71 0.649446 0.659474 11.9137 0.893728
4213.05 0.646043 0.656645 11.9689 0.893963
4213.4 0.642892 0.653928 12.0271 0.894199
4213.74 0.640392 0.651429 12.0827 0.894435
4214.08 0.638674 0.649247 12.1143 0.89467
4214.43 0.637109 0.647489 12.146 0.894906
4214.77 0.634984 0.646277 12.1691 0.895142
4215.12 0.632823 0.645732 12.1837 0.895378
4215.46 0.632365 0.645956 12.1983 0.895614
4215.81 0.635005 0.647016 12.1262 0.895849
4216.15 0.639954 0.648924 12.0446 0.896084
4216.5 0.645685 0.651621 11.9688 0.896319
4216.84 0.651112 0.65501 11.9059 0.896554
4217.19 0.655925 0.658976 11.8434 0.896788
4217.53 0.659937 0.663394 11.7869 0.897022
4217.88 0.66343 0.668121 11.7334 0.897255
4218.22 0.666978 0.672995 11.6785 0.897488
4218.57 0.67099 0.677807 11.6004 0.89772
4218.91 0.675325 0.682274 11.523 0.897951
4219.26 0.679725 0.686056 11.4431 0.898182
4219.6 0.683784 0.6888 11.3604 0.898412
4219.95 0.68693 0.690194 11.2785 0.898641
4220.3 0.688687 0.690006 11.2411 0.898869
4220.64 0.689225 0.688117 11.2112 0.899097
4220.99 0.68896 0.684507 11.2019 0.899323
4221.33 0.68781 0.679233 11.255 0.899548
4221.68 0.684729 0.672384 11.3084 0.899773
4222.02 0.678639 0.664068 11.4212 0.899996
4222.37 0.66949 0.654404 11.5692 0.900218
4222.71 0.657933 0.643535 11.7221 0.900439
4223.06 0.644663 0.631644 11.9342 0.900658
4223.4 0.630465 0.618963 12.152 0.900877
4223.75 0.61614 0.605783 12.3758 0.901093
4224.1 0.602264 0.592441 12.6058 0.901309
4224.44 0.589149 0.579298 12.8422 0.901523
4224.79 0.577061 0.566725 13.063 0.901735
4225.13 0.566069 0.555089 13.2849 0.901946
4225.48 0.556161 0.544738 13.5045 0.902155
4225.82 0.547372 0.535996 13.7018 0.902363
4226.17 0.539841 0.529155 13.9035 0.902569
4226.52 0.533722 0.52446 14.0785 0.902773
4226.86 0.52919 0.52208 14.2375 0.902975
4227.21 0.526439 0.522079 14.3965 0.903176
4227.55 0.525716 0.524407 14.4182 0.903375
4227.9 0.527485 0.528894 14.4399 0.903572
4228.24 0.532234 0.535287 14.3782 0.903768
4228.59 0.539689 0.543275 14.2028 0.903962
4228.94 0.548626 0.552525 14.0305 0.904154
4229.28 0.557924 0.562709 13.8254 0.904345
4229.63 0.567576 0.573497 13.6168 0.904533
4229.97 0.578053 0.584531 13.4113 0.904721
4230.32 0.589514 0.595448 13.2042 0.904906
4230.67 0.601449 0.605887 13.0019 0.90509
4231.01 0.613243 0.615513 12.8213 0.905272
4231.36 0.623993 0.624053 12.6549 0.905452
4231.71 0.632585 0.631337 12.4928 0.905631
4232.05 0.638291 0.637301 12.3957 0.905808
4232.4 0.641888 0.641965 12.2998 0.905983
4232.74 0.644495 0.645412 12.2289 0.906157
4233.09 0.646599 0.647767 12.1917 0.906329
4233.44 0.647901 0.649172 12.1547 0.906499
4233.78 0.648148 0.649784 12.1469 0.906668
4234.13 0.647731 0.649774 12.1456 0.906835
4234.48 0.647313 0.649326 12.1439 0.907
4234.82 0.647353 0.648624 12.1413 0.907164
4235.17 0.647868 0.647844 12.1386 0.907326
4235.52 0.648802 0.647142 12.1371 0.907486
4235.86 0.649845 0.646631 12.1363 0.907644
4236.21 0.650507 0.646385 12.1356 0.907801
4236.56 0.650435 0.64645 12.1394 0.907956
4236.9 0.649821 0.64686 12.1432 0.90811
4237.25 0.648983 0.647657 12.1444 0.908262
4237.6 0.648454 0.648906 12.142 0.908412
4237.94 0.649016 0.6507 12.1396 0.90856
4238.29 0.651269 0.653129 12.1081 0.908707
4238.64 0.654489 0.656253 12.0709 0.908852
4238.98 0.657415 0.660082 12.0351 0.908996
4239.33 0.65952 0.664558 12.0032 0.909138
4239.68 0.661758 0.669569 11.9715 0.909278
4240.02 0.665204 0.674991 11.9104 0.909416
4240.37 0.670238 0.680714 11.8336 0.909553
4240.72 0.676763 0.686651 11.7563 0.909688
4241.06 0.684514 0.692743 11.6553 0.909822
4241.41 0.692679 0.698944 11.5555 0.909953
4241.76 0.70034 0.705172 11.464 0.910083
4242.11 0.706915 0.711306 11.3819 0.910212
4242.45 0.712208 0.717189 11.3007 0.910339
4242.8 0.716121 0.722642 11.252 0.910464
4243.15 0.719059 0.727478 11.2087 0.910587
4243.49 0.721611 0.731531 11.1733 0.910709
4243.84 0.724109 0.734678 11.159 0.910829
4244.19 0.726407 0.736835 11.1447 0.910948
4244.54 0.728312 0.737949 11.1377 0.911065
4244.88 0.729663 0.738006 11.1341 0.91118
4245.23 0.73032 0.737021 11.1314 0.911294
4245.58 0.73016 0.735018 11.1373 0.911406
4245.92 0.729103 0.732023 11.1433 0.911516
4246.27 0.727082 0.728092 11.163 0.911624
4246.62 0.724026 0.723296 11.1966 0.911731
4246.97 0.719862 0.717721 11.2305 0.911837
4247.31 0.714542 0.711479 11.3007 0.91194
4247.66 0.708141 0.704715 11.3756 0.912042
4248.01 0.700775 0.697571 11.4612 0.912143
4248.36 0.692693 0.690199 11.5698 0.912241
4248.7 0.68435 0.682774 11.68 0.912338
4249.05 0.676228 0.675502 11.7925 0.912434
4249.4 0.668836 0.668591 11.9067 0.912528
4249.75 0.662699 0.662247 12.0153 0.91262
4250.1 0.658176 0.656655 12.0789 0.91271
4250.44 0.655185 0.651936 12.1429 0.912799
4250.79 0.653542 0.648118 12.1823 0.912886
4251.14 0.652546 0.645159 12.2011 0.912972
4251.49 0.651044 0.642963 12.22 0.913056
4251.83 0.648178 0.641415 12.2698 0.913138
4252.18 0.644489 0.640404 12.3212 0.913219
4252.53 0.640906 0.639877 12.3689 0.913298
4252.88 0.63815 0.639823 12.4102 0.913375
4253.23 0.636648 0.64025 12.4517 0.913451
4253.57 0.636733 0.641168 12.4609 0.913525
4253.92 0.638195 0.642565 12.4615 0.913597
4254.27 0.640566 0.644373 12.4528 0.913668
4254.62 0.64344 0.646487 12.4075 0.913738
4254.97 0.646539 0.648776 12.3626 0.913805
4255.31 0.649628 0.6511 12.3061 0.913871
4255.66 0.652777 0.653313 12.2426 0.913935
4256.01 0.656286 0.655293 12.1807 0.913998
4256.36 0.660175 0.656959 12.1482 0.914059
4256.71 0.663431 0.658258 12.1158 0.914119
4257.06 0.664847 0.659167 12.1 0.914176
4257.4 0.664404 0.65971 12.1046 0.914233
4257.75 0.663452 0.659941 12.1092 0.914287
4258.1 0.663204 0.659921 12.1166 0.91434
4258.45 0.663598 0.659735 12.1244 0.914391
4258.8 0.664094 0.659495 12.1306 0.914441
4259.15 0.664282 0.659321 12.1324 0.914489
4259.49 0.663993 0.659339 12.1342 0.914536
4259.84 0.663149 0.659698 12.1253 0.914581
4260.19 0.662405 0.660549 12.1118 0.914624
4260.54 0.662854 0.66205 12.0948 0.914665
4260.89 0.665108 0.664354 12.0518 0.914705
4261.24 0.668406 0.667588 12.009 0.914744
4261.59 0.671795 0.67182 11.9622 0.914781
4261.93 0.675265 0.677053 11.9118 0.914816
4262.28 0.679671 0.683209 11.8618 0.914849
4262.63 0.685679 0.690124 11.7562 0.914881
4262.98 0.692941 0.697554 11.6493 0.914911
4263.33 0.700815 0.705217 11.5411 0.91494
4263.68 0.708651 0.712785 11.4299 0.914967
4264.03 0.715786 0.719899 11.3203 0.914993
4264.38 0.721628 0.726215 11.2412 0.915017
4264.73 0.726114 0.731439 11.1706 0.915039
4265.07 0.729425 0.735329 11.1118 0.91506
4265.42 0.731766 0.737724 11.0952 0.915079
4265.77 0.733393 0.738555 11.0786 0.915096
4266.12 0.734519 0.737823 11.0889 0.915112
4266.47 0.734753 0.735554 11.1149 0.915126
4266.82 0.733275 0.731795 11.1427 0.915139
4267.17 0.729524 0.726611 11.2009 0.91515
4267.52 0.723841 0.720062 11.2595 0.915159
4267.87 0.716751 0.712229 11.3483 0.915167
4268.22 0.708562 0.703225 11.4711 0.915173
4268.57 0.699355 0.693196 11.5959 0.915178
4268.91 0.689172 0.682316 11.7659 0.915181
4269.26 0.677895 0.670805 11.9446 0.915183
4269.61 0.665361 0.658909 12.136 0.915183
4269.96 0.65191 0.646907 12.3506 0.915181
4270.31 0.638674 0.635105 12.5709 0.915178
4270.66 0.626823 0.62381 12.7556 0.915173
4271.01 0.61719 0.613311 12.9303 0.915166
4271.36 0.610434 0.60387 13.0869 0.915158
4271.71 0.606523 0.595709 13.1416 0.915149
4272.06 0.603762 0.588987 13.1967 0.915137
4272.41 0.600313 0.583815 13.28 0.915125
4272.76 0.595907 0.580269 13.3831 0.915111
4273.11 0.591493 0.578396 13.4868 0.915095
4273.46 0.588002 0.578225 13.5648 0.915078
4273.81 0.586177 0.579766 13.6434 0.91506
4274.16 0.586699 0.583007 13.6623 0.91504
4274.51 0.589744 0.587879 13.6075 0.915019
4274.86 0.594911 0.594225 13.553 0.914997
4275.21 0.601751 0.601797 13.4307 0.914973
4275.56 0.609733 0.610289 13.3005 0.914948
4275.91 0.618294 0.61937 13.1653 0.914921
4276.26 0.627003 0.628715 13.0165 0.914894
4276.61 0.63565 0.638046 12.8703 0.914865
4276.96 0.644051 0.647138 12.7342 0.914834
4277.31 0.652055 0.655785 12.603 0.914803
4277.66 0.659532 0.663804 12.4765 0.91477
4278.01 0.666323 0.671035 12.3655 0.914737
4278.36 0.6722 0.677345 12.2559 0.914702
4278.71 0.676946 0.682652 12.1716 0.914666
4279.06 0.680741 0.686956 12.1047 0.914629
4279.41 0.684078 0.690318 12.0385 0.91459
4279.76 0.687321 0.692827 11.9833 0.914551
4280.11 0.690308 0.694582 11.9284 0.914511
4280.46 0.692756 0.695664 11.8851 0.914469
4280.81 0.694478 0.696124 11.8558 0.914427
4281.16 0.695396 0.695999 11.8266 0.914383
4281.51 0.695473 0.69535 11.824 0.914339
4281.86 0.69486 0.694279 11.825 0.914294
4282.21 0.693774 0.692911 11.8335 0.914247
4282.56 0.692373 0.691371 11.8589 0.9142
4282.91 0.690711 0.689755 11.8844 0.914152
4283.26 0.688836 0.688082 11.9149 0.914103
4283.61 0.68682 0.686286 11.9472 0.914053
4283.96 0.684748 0.684246 11.9808 0.914003
4284.31 0.682675 0.681846 12.0199 0.913951
4284.66 0.680586 0.679011 12.0592 0.913899
4285.01 0.678444 0.67574 12.1137 0.913846
4285.36 0.676078 0.672102 12.1785 0.913792
4285.71 0.67321 0.668175 12.2447 0.913738
4286.06 0.669581 0.663998 12.3364 0.913682
4286.41 0.665017 0.659571 12.429 0.913627
4286.76 0.659369 0.654869 12.5301 0.91357
4287.12 0.65275 0.649878 12.6408 0.913513
4287.47 0.645554 0.64466 12.753 0.913455
4287.82 0.638225 0.639381 12.8662 0.913396
4288.17 0.631398 0.634262 12.9808 0.913337
4288.52 0.625763 0.629537 13.0912 0.913278
4288.87 0.621633 0.625409 13.1915 0.913218
4289.22 0.618735 0.622013 13.293 0.913157
4289.57 0.616766 0.619393 13.3318 0.913096
4289.92 0.615533 0.617543 13.3521 0.913034
4290.27 0.614901 0.61644 13.3668 0.912972
4290.62 0.614793 0.616052 13.3602 0.912909
4290.98 0.615248 0.616343 13.3537 0.912846
4291.33 0.616316 0.617268 13.3342 0.912783
4291.68 0.617906 0.618744 13.3076 0.912719
4292.03 0.619837 0.620643 13.2812 0.912655
4292.38 0.621913 0.622793 13.2543 0.91259
4292.73 0.623892 0.625002 13.2275 0.912525
4293.08 0.625531 0.627088 13.2099 0.91246
4293.43 0.626724 0.628895 13.2006 0.912394
4293.79 0.627501 0.630281 13.1914 0.912329
4294.14 0.627882 0.631112 13.1973 0.912263
4294.49 0.627841 0.631241 13.2038 0.912196
4294.84 0.627338 0.630491 13.2152 0.91213
4295.19 0.626347 0.62867 13.234 0.912063
4295.54 0.624863 0.625627 13.2529 0.911996
4295.89 0.622795 0.621308 13.3188 0.911929
4296.25 0.619472 0.615777 13.3947 0.911862
4296.6 0.614 0.609205 13.4957 0.911795
4296.95 0.606133 0.601838 13.6637 0.911728
4297.3 0.596817 0.593929 13.8348 0.91166
4297.65 0.5871 0.585684 14.0187 0.911593
4298.0 0.577829 0.577254 14.2102 0.911526
4298.35 0.569732 0.568759 14.3955 0.911458
4298.71 0.562951 0.560331 14.5286 0.911391
4299.06 0.556138 0.552115 14.6636 0.911323
4299.41 0.547837 0.54427 14.8284 0.911256
4299.76 0.538481 0.536952 15.0152 0.911189
4300.11 0.529972 0.530275 15.2048 0.911121
4300.47 0.523647 0.524289 15.3767 0.911054
4300.82 0.518696 0.519007 15.5516 0.910987
4301.17 0.513864 0.51442 15.7213 0.910921
4301.52 0.508747 0.510514 15.8848 0.910854
4301.87 0.503842 0.507279 16.0509 0.910788
4302.22 0.499645 0.504701 16.1523 0.910721
4302.58 0.496443 0.502718 16.2491 0.910655
4302.93 0.494449 0.501211 16.3186 0.91059
4303.28 0.493602 0.500007 16.3396 0.910524
4303.63 0.493447 0.498897 16.3606 0.910459
4303.99 0.493516 0.497677 16.3531 0.910394
4304.34 0.49347 0.496195 16.3389 0.91033
4304.69 0.493023 0.494389 16.3353 0.910265
4305.04 0.49198 0.492275 16.3623 0.910202
4305.39 0.490322 0.489947 16.3895 0.910138
4305.75 0.488061 0.487529 16.4536 0.910075
4306.1 0.485382 0.485143 16.5341 0.910013
4306.45 0.482565 0.482896 16.6104 0.909951
4306.8 0.479866 0.480885 16.6583 0.909889
4307.16 0.477459 0.479206 16.7064 0.909828
4307.51 0.475515 0.477994 16.7385 0.909767
4307.86 0.474259 0.477433 16.7594 0.909707
4308.21 0.473966 0.477712 16.7782 0.909647
4308.57 0.474873 0.479004 16.7411 0.909589
4308.92 0.477074 0.481453 16.7042 0.90953
4309.27 0.480622 0.485145 16.6182 0.909472
4309.62 0.485372 0.490109 16.4809 0.909415
4309.98 0.490972 0.496364 16.3454 0.909359
4310.33 0.497228 0.503936 16.1274 0.909303
4310.68 0.504758 0.512852 15.9077 0.909248
4311.03 0.514421 0.523119 15.6529 0.909194
4311.39 0.526468 0.53471 15.3414 0.90914
4311.74 0.540327 0.547546 15.0391 0.909087
4312.09 0.555376 0.561489 14.6827 0.909035
4312.44 0.571112 0.576364 14.3262 0.908983
4312.8 0.58708 0.591999 13.9811 0.908933
4313.15 0.603048 0.60826 13.6448 0.908883
4313.5 0.619198 0.625041 13.3205 0.908834
4313.86 0.635755 0.642248 13.0114 0.908787
4314.21 0.652998 0.659779 12.7142 0.908739
4314.56 0.671234 0.677502 12.423 0.908693
4314.92 0.69053 0.695214 12.1239 0.908648
4315.27 0.710384 0.712658 11.8353 0.908604
4315.62 0.730182 0.729552 11.562 0.908561
4315.97 0.748944 0.745624 11.301 0.908518
4316.33 0.765425 0.760623 11.0578 0.908477
4316.68 0.778733 0.774354 10.926 0.908437
4317.03 0.789107 0.786669 10.7966 0.908397
4317.39 0.797021 0.797439 10.6976 0.908359
4317.74 0.803185 0.806516 10.6246 0.908322
4318.09 0.808528 0.813737 10.5524 0.908285
4318.45 0.81374 0.818933 10.5106 0.90825
4318.8 0.818467 0.821964 10.4697 0.908216
4319.15 0.822075 0.82276 10.4439 0.908182
4319.51 0.82378 0.821354 10.4376 0.90815
4319.86 0.822615 0.81787 10.4313 0.908119
4320.21 0.817971 0.812487 10.4775 0.908088
4320.57 0.811279 0.8054 10.5306 0.908059
4320.92 0.804649 0.796801 10.5974 0.90803
4321.27 0.798231 0.786881 10.6905 0.908003
4321.63 0.789223 0.77584 10.7849 0.907976
4321.98 0.775108 0.763914 10.9867 0.907951
4322.34 0.757357 0.751391 11.2223 0.907926
4322.69 0.739232 0.738606 11.453 0.907903
4323.04 0.723085 0.725912 11.6526 0.90788
4323.4 0.709491 0.713677 11.8574 0.907858
4323.75 0.698744 0.702262 12.0168 0.907838
4324.1 0.69036 0.692002 12.1583 0.907818
4324.46 0.683402 0.6832 12.2936 0.907799
4324.81 0.677298 0.676138 12.3866 0.907782
4325.17 0.672387 0.671066 12.4807 0.907765
4325.52 0.669135 0.668202 12.5406 0.907749
4325.87 0.667865 0.667696 12.5794 0.907734
4326.23 0.668798 0.669606 12.6096 0.907721
4326.58 0.672048 0.673857 12.5347 0.907708
4326.94 0.677401 0.680236 12.4605 0.907696
4327.29 0.684582 0.688434 12.3543 0.907685
4327.64 0.693366 0.698092 12.2214 0.907675
4328.0 0.703576 0.708855 12.0907 0.907666
4328.35 0.715045 0.720412 11.9135 0.907658
4328.71 0.727648 0.732493 11.7398 0.907651
4329.06 0.741259 0.744833 11.5613 0.907645
4329.41 0.755479 0.757133 11.3768 0.907639
4329.77 0.7696 0.769082 11.1967 0.907635
4330.12 0.782865 0.780372 11.0424 0.907632
4330.48 0.794352 0.790736 10.8934 0.90763
4330.83 0.803111 0.799989 10.7781 0.907628
4331.19 0.809292 0.80806 10.7162 0.907628
4331.54 0.814596 0.814946 10.6549 0.907629
4331.89 0.820546 0.820688 10.5853 0.90763
4332.25 0.826694 0.825332 10.5146 0.907633
4332.6 0.831794 0.828904 10.4555 0.907636
4332.96 0.835137 0.83138 10.4231 0.90764
4333.31 0.836957 0.832696 10.3907 0.907646
4333.67 0.837564 0.83276 10.391 0.907652
4334.02 0.837095 0.831471 10.4019 0.907659
4334.38 0.835604 0.828731 10.4217 0.907667
4334.73 0.833002 0.824478 10.4745 0.907676
4335.09 0.828905 0.8187 10.5276 0.907686
4335.44 0.822921 0.811435 10.6077 0.907697
4335.8 0.815029 0.802765 10.7015 0.907709
4336.15 0.805436 0.792842 10.8046 0.907722
4336.5 0.794399 0.781892 10.9596 0.907736
4336.86 0.782284 0.770193 11.118 0.907751
4337.21 0.76948 0.758068 11.2959 0.907767
4337.57 0.756364 0.745882 11.489 0.907783
4337.92 0.74331 0.733991 11.6842 0.907801
4338.28 0.730745 0.722715 11.8442 0.907819
4338.63 0.719279 0.712343 12.0074 0.907839
4338.99 0.709539 0.703142 12.1407 0.907859
4339.34 0.701689 0.695355 12.2464 0.907881
4339.7 0.695473 0.689196 12.3534 0.907903
4340.05 0.690592 0.684828 12.4122 0.907926
4340.41 0.686651 0.682335 12.4713 0.90795
4340.76 0.683268 0.68171 12.524 0.907975
4341.12 0.68112 0.68285 12.5692 0.908001
4341.47 0.682052 0.685596 12.6146 0.908028
4341.83 0.687347 0.689778 12.5238 0.908056
4342.19 0.695186 0.695243 12.4237 0.908085
4342.54 0.702832 0.701852 12.3328 0.908114
4342.9 0.709085 0.709467 12.2548 0.908145
4343.25 0.714774 0.717917 12.1775 0.908176
4343.61 0.72083 0.726982 12.0772 0.908209
4343.96 0.727954 0.736399 11.9745 0.908242
4344.32 0.736754 0.745885 11.8632 0.908277
4344.67 0.747305 0.755179 11.734 0.908312
4345.03 0.758852 0.764082 11.6068 0.908348
4345.38 0.77054 0.772462 11.478 0.908385
4345.74 0.781328 0.78024 11.3503 0.908423
4346.09 0.790093 0.787375 11.2366 0.908462
4346.45 0.796374 0.793822 11.1565 0.908502
4346.81 0.800931 0.799496 11.0772 0.908542
4347.16 0.804607 0.804272 11.0231 0.908584
4347.52 0.807773 0.807996 10.9781 0.908627
4347.87 0.810549 0.810515 10.9375 0.90867
4348.23 0.81291 0.811715 10.9132 0.908714
4348.58 0.814512 0.811554 10.8889 0.90876
4348.94 0.814993 0.810075 10.8851 0.908806
4349.3 0.814207 0.807388 10.891 0.908853
4349.65 0.812148 0.803657 10.9023 0.908901
4350.01 0.808855 0.799086 10.9452 0.90895
4350.36 0.804474 0.793901 10.9884 0.909
4350.72 0.799149 0.788354 11.0563 0.90905
4351.08 0.792723 0.782732 11.1403 0.909102
4351.43 0.784819 0.777326 11.229 0.909155
4351.79 0.77569 0.772393 11.3576 0.909208
4352.14 0.767526 0.768138 11.4884 0.909262
4352.5 0.762739 0.764712 11.5642 0.909317
4352.86 0.761103 0.762196 11.5957 0.909374
4353.21 0.760148 0.760628 11.6276 0.909431
4353.57 0.758062 0.760051 11.6654 0.909489
4353.92 0.755666 0.760507 11.7034 0.909547
4354.28 0.754355 0.762015 11.7254 0.909607
4354.64 0.755066 0.764557 11.7319 0.909668
4354.99 0.758292 0.768058 11.7383 0.909729
4355.35 0.764076 0.77235 11.6904 0.909792
4355.71 0.770658 0.777176 11.6417 0.909855
4356.06 0.775863 0.782242 11.5857 0.909919
4356.42 0.779365 0.787263 11.5209 0.909984
4356.78 0.782912 0.792 11.4567 0.91005
4357.13 0.787962 0.796328 11.3868 0.910117
4357.49 0.793999 0.800259 11.317 0.910185
4357.85 0.799917 0.803897 11.259 0.910253
4358.2 0.805036 0.807405 11.2174 0.910323
4358.56 0.809221 0.810965 11.176 0.910393
4358.91 0.812427 0.814715 11.1461 0.910464
4359.27 0.814914 0.818704 11.1178 0.910536
4359.63 0.817045 0.822921 11.0882 0.910609
4359.98 0.81921 0.827303 11.0564 0.910683
4360.34 0.821828 0.831751 11.0247 0.910758
4360.7 0.825286 0.836169 10.9793 0.910834
4361.06 0.829719 0.840497 10.9314 0.91091
4361.41 0.835162 0.8447 10.879 0.910988
4361.77 0.841442 0.848757 10.8165 0.911066
4362.13 0.848051 0.852665 10.7546 0.911145
4362.48 0.854455 0.856407 10.6962 0.911225
4362.84 0.860144 0.859927 10.639 0.911306
4363.2 0.864626 0.863135 10.5899 0.911388
4363.55 0.867635 0.86591 10.5617 0.91147
4363.91 0.86932 0.868105 10.5336 0.911554
4364.27 0.8699 0.86958 10.517 0.911638
4364.62 0.869793 0.870249 10.5042 0.911723
4364.98 0.869515 0.87007 10.4944 0.911809
4365.34 0.869402 0.869079 10.4941 0.911895
4365.7 0.869399 0.867393 10.4939 0.911982
4366.05 0.869325 0.865164 10.5137 0.912071
4366.41 0.868155 0.862543 10.5419 0.912159
4366.77 0.864382 0.859663 10.5795 0.912249
4367.13 0.857592 0.856597 10.6577 0.91234
4367.48 0.849879 0.853349 10.7368 0.912431
4367.84 0.843537 0.849896 10.7919 0.912523
4368.2 0.83912 0.846207 10.8351 0.912615
4368.55 0.83607 0.842259 10.8782 0.912708
4368.91 0.833781 0.838062 10.9197 0.912802
4369.27 0.831556 0.833672 10.9614 0.912897
4369.63 0.828715 0.829166 11.0131 0.912993
4369.98 0.825013 0.824623 11.0708 0.913089
4370.34 0.820508 0.820119 11.1311 0.913186
4370.7 0.815349 0.815694 11.2074 0.913283
4371.06 0.809925 0.811336 11.2845 0.913381
4371.42 0.804658 0.807 11.3569 0.91348
4371.77 0.799807 0.802626 11.4264 0.913579
4372.13 0.795507 0.79816 11.4949 0.913679
4372.49 0.791794 0.793601 11.546 0.91378
4372.85 0.788401 0.789018 11.5975 0.913881
4373.2 0.785016 0.78454 11.6456 0.913983
4373.56 0.781557 0.780341 11.6911 0.914086
4373.92 0.778135 0.776621 11.7359 0.914189
4374.28 0.774897 0.773563 11.7643 0.914292
4374.64 0.772107 0.7713 11.7928 0.914397
4374.99 0.770045 0.769903 11.811 0.914501
4375.35 0.768859 0.769355 11.8206 0.914607
4375.71 0.768582 0.769547 11.8299 0.914713
4376.07 0.76915 0.770294 11.8331 0.914819
4376.43 0.770163 0.771357 11.8363 0.914926
4376.78 0.771164 0.772468 11.8353 0.915034
4377.14 0.772169 0.773371 11.8304 0.915142
4377.5 0.773656 0.773846 11.8255 0.91525
4377.86 0.775821 0.773706 11.7981 0.915359
4378.22 0.77766 0.772787 11.7708 0.915469
4378.57 0.777887 0.77095 11.7773 0.915579
4378.93 0.77583 0.768049 11.8195 0.915689
4379.29 0.771451 0.763939 11.8621 0.9158
4379.65 0.764865 0.7585 11.974 0.915912
4380.01 0.756721 0.751658 12.0894 0.916024
4380.37 0.747799 0.743406 12.2212 0.916136
4380.72 0.738469 0.733849 12.3727 0.916249
4381.08 0.72865 0.723209 12.527 0.916362
4381.44 0.718274 0.71182 12.703 0.916475
4381.8 0.70745 0.700104 12.8837 0.916589
4382.16 0.696344 0.688546 13.0634 0.916704
4382.52 0.685389 0.677618 13.2406 0.916819
4382.88 0.675323 0.667746 13.4214 0.916934
4383.23 0.666825 0.659284 13.5402 0.917049
4383.59 0.660176 0.652481 13.6556 0.917165
4383.95 0.65553 0.647475 13.7435 0.917282
4384.31 0.652806 0.644315 13.792 0.917398
4384.67 0.651638 0.642982 13.8407 0.917515
4385.03 0.65166 0.643405 13.8418 0.917633
4385.39 0.652593 0.645482 13.8383 0.91775
4385.74 0.654202 0.649099 13.822 0.917868
4386.1 0.656664 0.654107 13.787 0.917987
4386.46 0.660695 0.660315 13.7522 0.918105
4386.82 0.666814 0.667474 13.6273 0.918224
4387.18 0.674272 0.675295 13.4939 0.918343
4387.54 0.681902 0.683463 13.3674 0.918463
4387.9 0.689072 0.691674 13.2504 0.918583
4388.26 0.695864 0.699662 13.135 0.918703
4388.62 0.702441 0.707228 13.0197 0.918823
4388.98 0.70913 0.71425 12.9058 0.918943
4389.33 0.71631 0.72069 12.7939 0.919064
4389.69 0.724047 0.726581 12.6844 0.919185
4390.05 0.731972 0.732007 12.5762 0.919306
4390.41 0.739593 0.737092 12.4875 0.919427
4390.77 0.745887 0.741951 12.4023 0.919549
4391.13 0.749657 0.746686 12.3496 0.919671
4391.49 0.750855 0.751377 12.3524 0.919793
4391.85 0.751078 0.756079 12.3552 0.919915
4392.21 0.751908 0.76081 12.3308 0.920037
4392.57 0.754072 0.765568 12.302 0.92016
4392.93 0.757959 0.770327 12.259 0.920282
4393.29 0.763442 0.775044 12.1903 0.920405
4393.65 0.769642 0.779686 12.1221 0.920528
4394.01 0.775671 0.784248 12.0527 0.920651
4394.37 0.780966 0.788761 11.9834 0.920774
4394.72 0.7851 0.793281 11.9232 0.920898
4395.08 0.788181 0.79786 11.8791 0.921021
4395.44 0.791115 0.80251 11.8352 0.921144
4395.8 0.79475 0.807172 11.7827 0.921268
4396.16 0.799149 0.811723 11.7289 0.921392
4396.52 0.804055 0.815975 11.6741 0.921515
4396.88 0.809074 0.819732 11.617 0.921639
4397.24 0.8136 0.822823 11.5603 0.921763
4397.6 0.817064 0.825125 11.5292 0.921887
4397.96 0.81926 0.826565 11.5031 0.922011
4398.32 0.820127 0.827124 11.4862 0.922135
4398.68 0.819798 0.826805 11.487 0.922259
4399.04 0.818694 0.825612 11.4879 0.922383
4399.4 0.81722 0.82355 11.5113 0.922507
4399.76 0.815534 0.820606 11.5391 0.922631
4400.12 0.813679 0.816764 11.5786 0.922755
4400.48 0.811119 0.812012 11.6409 0.922879
4400.84 0.806426 0.806362 11.7037 0.923003
4401.2 0.798488 0.799847 11.8123 0.923126
4401.56 0.788762 0.792563 11.9312 0.92325
4401.92 0.779712 0.784657 12.0368 0.923374
4402.28 0.772551 0.776335 12.1139 0.923498
4402.64 0.766574 0.767858 12.1917 0.923621
4403.0 0.760944 0.759526 12.2914 0.923745
4403.36 0.755037 0.751632 12.3964 0.923869
4403.72 0.748321 0.744435 12.5051 0.923992
4404.08 0.740813 0.738123 12.6198 0.924115
4404.44 0.733359 0.732809 12.7361 0.924238
4404.8 0.726905 0.728559 12.8018 0.924361
4405.16 0.722584 0.725422 12.8584 0.924484
4405.53 0.72159 0.723465 12.8766 0.924607
4405.89 0.724378 0.722795 12.8222 0.92473
4406.25 0.730295 0.723548 12.7682 0.924852
4406.61 0.738525 0.725854 12.6601 0.924975
4406.97 0.747795 0.7298 12.544 0.925097
4407.33 0.756669 0.73539 12.4352 0.925219
4407.69 0.764316 0.742524 12.3381 0.925341
4408.05 0.770798 0.75099 12.2421 0.925462
4408.41 0.776312 0.760478 12.161 0.925584
4408.77 0.781466 0.770624 12.0828 0.925705
4409.13 0.787011 0.781049 12.0045 0.925826
4409.49 0.793355 0.791384 11.9253 0.925947
4409.85 0.800408 0.801304 11.8468 0.926067
4410.21 0.807983 0.810544 11.7504 0.926187
4410.57 0.815543 0.818879 11.6523 0.926307
4410.94 0.82243 0.826132 11.565 0.926427
4411.3 0.828275 0.832187 11.4944 0.926546
4411.66 0.833113 0.836977 11.4244 0.926666
4412.02 0.837076 0.840485 11.3766 0.926784
4412.38 0.840679 0.842757 11.332 0.926903
4412.74 0.844563 0.84389 11.2851 0.927021
4413.1 0.848971 0.84403 11.2347 0.927139
4413.46 0.853607 0.843358 11.1846 0.927256
4413.82 0.858054 0.842077 11.1332 0.927373
4414.18 0.861444 0.840417 11.082 0.92749
4414.55 0.862777 0.838614 11.0537 0.927606
4414.91 0.862048 0.836901 11.0589 0.927722
4415.27 0.86053 0.835513 11.064 0.927838
4415.63 0.859241 0.83468 11.0925 0.927953
4415.99 0.857407 0.834577 11.1234 0.928067
4416.35 0.853712 0.835333 11.1775 0.928181
4416.71 0.848371 0.83702 11.2643 0.928295
4417.07 0.843471 0.839623 11.352 0.928409
4417.44 0.840917 0.843036 11.3768 0.928521
4417.8 0.841113 0.847096 11.3967 0.928634
4418.16 0.843977 0.851564 11.3854 0.928746
4418.52 0.848617 0.85615 11.3345 0.928857
4418.88 0.853194 0.860567 11.284 0.928968
4419.24 0.856259 0.864567 11.2542 0.929078
4419.61 0.85843 0.867938 11.2257 0.929188
4419.97 0.86089 0.870559 11.2015 0.929297
4420.33 0.863833 0.872393 11.1824 0.929406
4420.69 0.866352 0.873438 11.1633 0.929514
4421.05 0.86765 0.873727 11.1638 0.929621
4421.41 0.867638 0.873339 11.1649 0.929728
4421.78 0.866428 0.872365 11.1694 0.929835
4422.14 0.86438 0.870912 11.1775 0.929941
4422.5 0.862108 0.869129 11.1857 0.930046
4422.86 0.860191 0.867177 11.1909 0.93015
4423.22 0.859023 0.865193 11.1961 0.930254
4423.58 0.858933 0.863299 11.1978 0.930357
4423.95 0.859839 0.861592 11.1962 0.93046
4424.31 0.861255 0.860126 11.195 0.930562
4424.67 0.862611 0.858936 11.2152 0.930663
4425.03 0.863067 0.858064 11.2355 0.930763
4425.39 0.86179 0.857537 11.2632 0.930863
4425.76 0.859291 0.857369 11.2972 0.930962
4426.12 0.857305 0.857553 11.3288 0.931061
4426.48 0.857187 0.858046 11.3137 0.931158
4426.84 0.858855 0.858752 11.2987 0.931255
4427.21 0.861893 0.859541 11.2733 0.931351
4427.57 0.865494 0.860271 11.24 0.931447
4427.93 0.86852 0.860806 11.209 0.931541
4428.29 0.870132 0.861043 11.2007 0.931635
4428.65 0.870468 0.86096 11.1925 0.931728
4429.02 0.869802 0.860588 11.2035 0.93182
4429.38 0.867647 0.859988 11.2274 0.931911
4429.74 0.862926 0.859227 11.2593 0.932002
4430.1 0.855618 0.85835 11.3518 0.932092
4430.47 0.848751 0.857323 11.4454 0.932181
4430.83 0.845645 0.85606 11.4841 0.932268
4431.19 0.846351 0.85446 11.4904 0.932356
4431.55 0.8486 0.852447 11.4958 0.932442
4431.92 0.850301 0.850005 11.4961 0.932527
4432.28 0.849939 0.847222 11.4965 0.932611
4432.64 0.846307 0.844282 11.5286 0.932695
4433.0 0.840689 0.841415 11.5769 0.932778
4433.37 0.835965 0.838865 11.6207 0.932859
4433.73 0.83382 0.836848 11.6435 0.93294
4434.09 0.833102 0.835526 11.6663 0.93302
4434.46 0.832401 0.835006 11.6725 0.933098
4434.82 0.831774 0.835348 11.6718 0.933176
4435.18 0.832129 0.836572 11.6647 0.933253
4435.54 0.833982 0.838654 11.6358 0.933329
4435.91 0.837 0.84154 11.607 0.933403
4436.27 0.840741 0.845133 11.572 0.933477
4436.63 0.844716 0.849302 11.535 0.93355
4437.0 0.848414 0.853908 11.4993 0.933622
4437.36 0.851544 0.858819 11.4671 0.933692
4437.72 0.854227 0.863888 11.435 0.933762
4438.09 0.856658 0.868961 11.4076 0.93383
4438.45 0.859279 0.873865 11.3816 0.933898
4438.81 0.862642 0.878389 11.3468 0.933964
4439.17 0.866956 0.882303 11.2925 0.934029
4439.54 0.87186 0.885414 11.2387 0.934093
4439.9 0.876897 0.887597 11.1941 0.934156
4440.26 0.881343 0.888829 11.1516 0.934218
4440.63 0.884366 0.889206 11.1234 0.934279
4440.99 0.885606 0.888932 11.1209 0.934338
4441.35 0.885393 0.88828 11.1184 0.934396
4441.72 0.884187 0.887546 11.1375 0.934454
4442.08 0.882886 0.887006 11.1597 0.93451
4442.44 0.882532 0.88689 11.1698 0.934564
4442.81 0.883548 0.887369 11.1615 0.934618
4443.17 0.885551 0.88854 11.1532 0.93467
4443.54 0.888072 0.890429 11.1317 0.934721
4443.9 0.890476 0.89302 11.1092 0.934771
4444.26 0.892113 0.896252 11.0823 0.93482
4444.63 0.893407 0.900016 11.05 0.934867
4444.99 0.896016 0.90418 11.0178 0.934913
4445.35 0.901268 0.908615 10.9602 0.934958
4445.72 0.908763 0.913177 10.9023 0.935001
4446.08 0.917606 0.917719 10.839 0.935043
4446.44 0.926359 0.922103 10.7704 0.935084
4446.81 0.933032 0.926187 10.703 0.935124
4447.17 0.936329 0.929807 10.6578 0.935162
4447.54 0.937629 0.932796 10.6128 0.935199
4447.9 0.938866 0.935003 10.588 0.935234
4448.26 0.9407 0.936304 10.5796 0.935268
4448.63 0.942678 0.936645 10.5724 0.935301
4448.99 0.944272 0.936051 10.5795 0.935332
4449.36 0.944836 0.934618 10.5867 0.935362
4449.72 0.943731 0.932473 10.6109 0.93539
4450.08 0.94075 0.929717 10.6462 0.935417
4450.45 0.936019 0.926372 10.6854 0.935443
4450.81 0.929784 0.922383 10.7486 0.935467
4451.18 0.922592 0.917645 10.8123 0.93549
4451.54 0.915011 0.912063 10.889 0.935511
4451.91 0.907223 0.905611 10.9729 0.935531
4452.27 0.899163 0.898369 11.0608 0.935549
4452.63 0.890709 0.890494 11.1624 0.935566
4453.0 0.881625 0.882186 11.2654 0.935581
4453.36 0.871733 0.87363 11.3785 0.935595
4453.73 0.861568 0.86498 11.4966 0.935607
4454.09 0.852065 0.856364 11.6124 0.935618
4454.46 0.843881 0.847894 11.7168 0.935627
4454.82 0.837124 0.839704 11.8226 0.935635
4455.18 0.831786 0.831949 11.9081 0.935641
4455.55 0.827418 0.824781 11.9882 0.935645
4455.91 0.823368 0.818314 12.0614 0.935648
4456.28 0.819162 0.812611 12.118 0.93565
4456.64 0.814627 0.807678 12.175 0.93565
4457.01 0.809683 0.803485 12.2471 0.935649
4457.37 0.80468 0.800001 12.3227 0.935646
4457.74 0.800134 0.797213 12.3938 0.935642
4458.1 0.796379 0.795122 12.4569 0.935637
4458.47 0.793498 0.793727 12.5205 0.93563
4458.83 0.79156 0.793022 12.5369 0.935622
4459.2 0.790659 0.79297 12.5486 0.935613
4459.56 0.790895 0.793522 12.5436 0.935603
4459.93 0.79228 0.794633 12.5173 0.935591
4460.29 0.794722 0.796289 12.4912 0.935578
4460.66 0.798062 0.798493 12.4598 0.935564
4461.02 0.80187 0.801287 12.4284 0.935548
4461.39 0.805657 0.804733 12.4024 0.935532
4461.75 0.809309 0.808857 12.3817 0.935514
4462.12 0.813076 0.813628 12.3589 0.935496
4462.48 0.817225 0.818962 12.2901 0.935476
4462.85 0.822041 0.824712 12.2218 0.935455
4463.21 0.827789 0.830688 12.1455 0.935433
4463.58 0.834432 0.836716 12.0639 0.93541
4463.94 0.841682 0.84267 11.9826 0.935387
4464.31 0.849189 0.848456 11.8983 0.935362
4464.67 0.856446 0.854007 11.815 0.935336
4465.04 0.862939 0.859273 11.7351 0.935309
4465.4 0.86839 0.864192 11.6574 0.935282
4465.77 0.872681 0.868676 11.5878 0.935253
4466.13 0.875814 0.872662 11.5504 0.935224
4466.5 0.878057 0.876131 11.5132 0.935194
4466.86 0.879715 0.879122 11.4987 0.935163
4467.23 0.881092 0.881729 11.4927 0.935131
4467.6 0.882487 0.884083 11.4856 0.935098
4467.96 0.884117 0.886311 11.4748 0.935065
4468.33 0.886032 0.888525 11.4641 0.935031
4468.69 0.888255 0.890828 11.4417 0.934996
4469.06 0.890717 0.893319 11.4164 0.934961
4469.42 0.893306 0.896115 11.3865 0.934925
4469.79 0.895984 0.899328 11.3474 0.934888
4470.15 0.898814 0.903032 11.3086 0.93485
4470.52 0.901906 0.907249 11.2737 0.934813
4470.89 0.905557 0.911947 11.2395 0.934774
4471.25 0.910137 0.917037 11.1941 0.934735
4471.62 0.916078 0.922408 11.133 0.934695
4471.98 0.923891 0.92796 11.0724 0.934655
4472.35 0.933732 0.933603 10.9803 0.934615
4472.72 0.944113 0.939263 10.8879 0.934574
4473.08 0.9531 0.94488 10.8067 0.934532
4473.45 0.959352 0.950399 10.7365 0.93449
4473.81 0.962127 0.955756 10.6694 0.934448
4474.18 0.961531 0.960876 10.6687 0.934405
4474.55 0.960593 0.965668 10.6679 0.934362
4474.91 0.962783 0.970005 10.6522 0.934319
4475.28 0.968016 0.973746 10.6256 0.934275
4475.64 0.973316 0.976763 10.5998 0.934231
4476.01 0.9765 0.978944 10.5791 0.934187
4476.38 0.977847 0.980206 10.5585 0.934143
4476.74 0.978045 0.980517 10.5458 0.934098
4477.11 0.977569 0.979887 10.5371 0.934053
4477.48 0.976754 0.978337 10.5327 0.934008
4477.84 0.975731 0.975927 10.5448 0.933963
4478.21 0.97419 0.972759 10.5569 0.933918
4478.57 0.971763 0.968964 10.5904 0.933872
4478.94 0.968101 0.964691 10.6313 0.933827
4479.31 0.962874 0.960128 10.681 0.933781
4479.67 0.956354 0.955469 10.7517 0.933736
4480.04 0.949857 0.950913 10.8231 0.93369
4480.41 0.944682 0.94667 10.8678 0.933644
4480.77 0.941323 0.942959 10.9073 0.933599
4481.14 0.939946 0.939983 10.933 0.933553
4481.51 0.940427 0.937914 10.9359 0.933508
4481.87 0.942248 0.936866 10.9389 0.933462
4482.24 0.944872 0.936877 10.9202 0.933417
4482.61 0.947806 0.937924 10.8998 0.933372
4482.97 0.950585 0.939928 10.8779 0.933327
4483.34 0.953069 0.942755 10.8544 0.933282
4483.71 0.955472 0.946242 10.831 0.933237
4484.07 0.95803 0.950208 10.8078 0.933193
4484.44 0.960999 0.954436 10.7846 0.933149
4484.81 0.964608 0.958682 10.7575 0.933105
4485.18 0.968511 0.96269 10.7275 0.933061
4485.54 0.971885 0.966195 10.6993 0.933018
4485.91 0.974046 0.968947 10.6848 0.932975
4486.28 0.974767 0.970759 10.6704 0.932933
4486.64 0.973939 0.971534 10.669 0.93289
4487.01 0.971922 0.971277 10.6742 0.932849
4487.38 0.969382 0.970082 10.6826 0.932807
4487.74 0.966986 0.968111 10.7027 0.932766
4488.11 0.965394 0.965551 10.7228 0.932726
4488.48 0.965103 0.962578 10.7404 0.932686
4488.85 0.965256 0.959342 10.7571 0.932646
4489.21 0.964325 0.955975 10.7799 0.932608
4489.58 0.961543 0.952578 10.8162 0.932569
4489.95 0.95741 0.949235 10.8527 0.932531
4490.32 0.952556 0.946012 10.9042 0.932494
4490.68 0.947669 0.942954 10.9584 0.932458
4491.05 0.94345 0.940071 11.0121 0.932422
4491.42 0.940271 0.937361 11.0649 0.932386
4491.79 0.938088 0.934812 11.118 0.932352
4492.15 0.93671 0.932412 11.1405 0.932318
4492.52 0.935419 0.93017 11.1618 0.932285
4492.89 0.933386 0.92811 11.1801 0.932252
4493.26 0.930679 0.926266 11.1955 0.932221
4493.62 0.928226 0.924687 11.2113 0.93219
4493.99 0.926668 0.923428 11.2338 0.93216
4494.36 0.925557 0.92255 11.2563 0.932131
4494.73 0.924263 0.92212 11.2808 0.932103
4495.09 0.922707 0.922207 11.3067 0.932075
4495.46 0.92122 0.922873 11.3301 0.932049
4495.83 0.920298 0.924172 11.3406 0.932023
4496.2 0.920815 0.92616 11.3512 0.931999
4496.57 0.92357 0.92889 11.3277 0.931975
4496.93 0.9281 0.932392 11.2912 0.931952
4497.3 0.933246 0.93665 11.2501 0.931931
4497.67 0.938278 0.94159 11.1972 0.93191
4498.04 0.943253 0.947078 11.1446 0.931891
4498.41 0.948302 0.952937 11.0925 0.931872
4498.77 0.953487 0.958983 11.0408 0.931855
4499.14 0.958838 0.965075 10.9898 0.931839
4499.51 0.96437 0.971121 10.9396 0.931824
4499.88 0.970066 0.977073 10.8898 0.93181
4500.25 0.975903 0.982917 10.8406 0.931797
4500.61 0.981819 0.988662 10.7917 0.931786
4500.98 0.987747 0.994318 10.7421 0.931776
4501.35 0.99374 0.9999 10.6919 0.931767
4501.72 0.999975 1.00542 10.6416 0.931759
4502.09 1.00645 1.01089 10.5855 0.931753
4502.46 1.01257 1.01628 10.5298 0.931748
4502.82 1.01764 1.02157 10.4791 0.931744
4503.19 1.02187 1.02668 10.4315 0.931742
4503.56 1.02612 1.03157 10.3839 0.93174
4503.93 1.03096 1.03618 10.3344 0.931741
4504.3 1.03622 1.04046 10.2853 0.931742
4504.67 1.04155 1.04435 10.2391 0.931745
4505.04 1.04586 1.04778 10.1941 0.931749
4505.4 1.0477 1.05066 10.1617 0.931754
4505.77 1.04727 1.05293 10.1607 0.93176
4506.14 1.04774 1.05454 10.1597 0.931768
4506.51 1.05191 1.05551 10.1096 0.931777
4506.88 1.05827 1.05587 10.0506 0.931788
4507.25 1.0636 1.05571 10.013 0.931799
4507.62 1.0661 1.05509 10.0068 0.931812
4507.99 1.06583 1.05409 10.0006 0.931826
4508.35 1.06315 1.05281 10.0279 0.931842
4508.72 1.05911 1.05129 10.0567 0.931858
4509.09 1.05494 1.04958 10.0908 0.931876
4509.46 1.05118 1.04771 10.1298 0.931896
4509.83 1.04771 1.04567 10.1692 0.931916
4510.2 1.04436 1.04342 10.2099 0.931938
4510.57 1.04086 1.04092 10.2508 0.931961
4510.94 1.03695 1.03813 10.2922 0.931985
4511.31 1.03275 1.03502 10.3339 0.932011
4511.67 1.02864 1.03158 10.3736 0.932038
4512.04 1.02485 1.02786 10.404 0.932066
4512.41 1.02132 1.02392 10.4346 0.932095
4512.78 1.01795 1.01988 10.4642 0.932126
4513.15 1.01457 1.01587 10.4935 0.932158
4513.52 1.01104 1.01205 10.5262 0.932191
4513.89 1.00739 1.00853 10.5657 0.932225
4514.26 1.00395 1.0054 10.6054 0.932261
4514.63 1.00103 1.00269 10.6412 0.932298
4515.0 0.998492 1.00039 10.6766 0.932336
4515.37 0.996067 0.998521 10.7095 0.932376
4515.74 0.993721 0.997069 10.739 0.932416
4516.11 0.991671 0.996056 10.7684 0.932458
4516.48 0.99016 0.995528 10.7791 0.932501
4516.85 0.989452 0.995525 10.7899 0.932546
4517.22 0.989806 0.996036 10.7862 0.932592
4517.58 0.991315 0.997005 10.7721 0.932639
4517.95 0.993935 0.998324 10.7543 0.932687
4518.32 0.997483 0.999841 10.7149 0.932736
4518.69 1.00143 1.00139 10.6758 0.932787
4519.06 1.00522 1.00282 10.6419 0.932839
4519.43 1.00838 1.00401 10.6101 0.932892
4519.8 1.01052 1.00484 10.5872 0.932946
4520.17 1.01137 1.00523 10.5868 0.933002
4520.54 1.0109 1.0051 10.5863 0.933059
4520.91 1.00914 1.00439 10.6084 0.933117
4521.28 1.00639 1.00303 10.6347 0.933176
4521.65 1.00307 1.00093 10.6679 0.933237
4522.02 0.999486 0.998028 10.7107 0.933299
4522.39 0.995822 0.994238 10.7539 0.933362
4522.76 0.992044 0.989512 10.7953 0.933426
4523.13 0.987213 0.983834 10.8369 0.933492
4523.5 0.98021 0.977224 10.9138 0.933559
4523.87 0.971107 0.969733 11.021 0.933627
4524.24 0.961026 0.961443 11.1279 0.933696
4524.61 0.951009 0.952493 11.2219 0.933766
4524.98 0.941762 0.943083 11.3171 0.933838
4525.35 0.933855 0.933468 11.409 0.933911
4525.72 0.927 0.92391 11.4999 0.933985
4526.09 0.920381 0.914641 11.5943 0.93406
4526.46 0.913051 0.905832 11.6968 0.934137
4526.83 0.903826 0.897582 11.8006 0.934215
4527.21 0.891951 0.889941 11.9385 0.934294
4527.58 0.879799 0.882954 12.0859 0.934374
4527.95 0.870987 0.876671 12.1941 0.934456
4528.32 0.866617 0.871151 12.2388 0.934538
4528.69 0.864468 0.866459 12.2837 0.934622
4529.06 0.862455 0.86266 12.3281 0.934707
4529.43 0.860136 0.859799 12.3727 0.934794
4529.8 0.85754 0.857895 12.4123 0.934881
4530.17 0.855087 0.856932 12.4475 0.93497
4530.54 0.853547 0.856854 12.4799 0.93506
4530.91 0.853423 0.857559 12.4878 0.935151
4531.28 0.854413 0.858925 12.4957 0.935244
4531.65 0.856107 0.860833 12.4792 0.935337
4532.02 0.858539 0.863171 12.4514 0.935432
4532.39 0.862015 0.865844 12.4173 0.935528
4532.76 0.866469 0.868797 12.3649 0.935625
4533.14 0.87111 0.872019 12.3129 0.935724
4533.51 0.875168 0.875533 12.2721 0.935823
4533.88 0.87857 0.879417 12.2337 0.935924
4534.25 0.881542 0.883779 12.1953 0.936026
4534.62 0.884537 0.888715 12.1567 0.93613
4534.99 0.8883 0.894265 12.1182 0.936234
4535.36 0.893477 0.900401 12.0507 0.93634
4535.73 0.900175 0.907023 11.983 0.936447
4536.1 0.908336 0.913975 11.8901 0.936555
4536.47 0.917469 0.92108 11.7774 0.936664
4536.85 0.926703 0.928171 11.6684 0.936774
4537.22 0.935328 0.935118 11.5764 0.936886
4537.59 0.943127 0.941804 11.4854 0.936999
4537.96 0.949967 0.948127 11.4137 0.937113
4538.33 0.955756 0.954012 11.3505 0.937228
4538.7 0.960424 0.959393 11.2953 0.937344
4539.07 0.963959 0.964197 11.2602 0.937462
4539.45 0.966446 0.968355 11.2253 0.937581
4539.82 0.96815 0.971824 11.2098 0.937701
4540.19 0.970385 0.974578 11.1978 0.937822
4540.56 0.974801 0.976626 11.1688 0.937944
4540.93 0.980823 0.978022 11.1177 0.938068
4541.3 0.985191 0.978845 11.0672 0.938192
4541.67 0.985442 0.979171 11.0741 0.938318
4542.05 0.982872 0.979073 11.081 0.938445
4542.42 0.979661 0.978628 11.0988 0.938574
4542.79 0.977388 0.977924 11.1245 0.938703
4543.16 0.977144 0.977067 11.1489 0.938834
4543.53 0.978992 0.976172 11.1666 0.938965
4543.9 0.980464 0.975324 11.1843 0.939098
4544.28 0.97911 0.974529 11.2034 0.939232
4544.65 0.976051 0.973725 11.2231 0.939368
4545.02 0.974262 0.972819 11.2307 0.939504
4545.39 0.974644 0.971722 11.2128 0.939642
4545.76 0.974756 0.970383 11.195 0.939781
4546.14 0.972337 0.968807 11.2258 0.939921
4546.51 0.96772 0.967059 11.2621 0.940062
4546.88 0.962112 0.965229 11.306 0.940204
4547.25 0.956938 0.96342 11.358 0.940348
4547.62 0.953848 0.96175 11.4078 0.940492
4548.0 0.95369 0.960333 11.4196 0.940638
4548.37 0.954615 0.95924 11.4314 0.940785
4548.74 0.954387 0.958486 11.4501 0.940933
4549.11 0.952913 0.95803 11.4728 0.941083
4549.48 0.951569 0.957798 11.4883 0.941233
4549.86 0.951207 0.957714 11.4786 0.941385
4550.23 0.951534 0.957718 11.4689 0.941537
4550.6 0.952149 0.957779 11.4586 0.941691
4550.97 0.95286 0.957901 11.4482 0.941846
4551.35 0.953571 0.9581 11.4402 0.942002
4551.72 0.95433 0.958405 11.4361 0.942159
4552.09 0.955371 0.95888 11.432 0.942317
4552.46 0.956836 0.959621 11.4275 0.942476
4552.84 0.95839 0.960709 11.423 0.942636
4553.21 0.959613 0.962223 11.4139 0.942797
4553.58 0.960777 0.964223 11.4012 0.942959
4553.95 0.962749 0.966743 11.3824 0.943122
4554.33 0.966175 0.969812 11.327 0.943285
4554.7 0.971071 0.973462 11.2721 0.94345
4555.07 0.977319 0.977718 11.1979 0.943615
4555.44 0.984524 0.982573 11.1171 0.943782
4555.82 0.992142 0.987973 11.0352 0.943949
4556.19 0.999678 0.993824 10.9495 0.944117
4556.56 1.00673 1.0 10.8649 0.944285
4556.93 1.01302 1.00636 10.8075 0.944455
4557.31 1.01893 1.01277 10.7535 0.944625
4557.68 1.025 1.01907 10.7023 0.944796
4558.05 1.03134 1.02512 10.654 0.944967
4558.43 1.03751 1.03076 10.6065 0.945139
4558.8 1.0431 1.03584 10.5651 0.945312
4559.17 1.04786 1.04023 10.524 0.945486
4559.55 1.05155 1.04382 10.4942 0.94566
4559.92 1.05417 1.04653 10.4702 0.945834
4560.29 1.05583 1.04833 10.4527 0.94601
4560.66 1.05674 1.04922 10.4551 0.946185
4561.04 1.05722 1.04925 10.4574 0.946362
4561.41 1.05753 1.04852 10.4602 0.946538
4561.78 1.05736 1.04716 10.4631 0.946716
4562.16 1.05617 1.04533 10.4859 0.946893
4562.53 1.0537 1.04318 10.5362 0.947072
4562.9 1.05004 1.04086 10.5872 0.94725
4563.28 1.04542 1.03851 10.6665 0.947429
4563.65 1.04052 1.03628 10.7468 0.947609
4564.02 1.03614 1.03429 10.8184 0.947788
4564.4 1.03299 1.03267 10.8843 0.947968
4564.77 1.03172 1.03153 10.9306 0.948149
4565.14 1.03229 1.03092 10.8922 0.948329
4565.52 1.03311 1.03085 10.8539 0.94851
4565.89 1.03266 1.03129 10.8321 0.948692
4566.27 1.03193 1.03217 10.8149 0.948873
4566.64 1.03301 1.03339 10.7846 0.949055
4567.01 1.03651 1.03487 10.7323 0.949237
4567.39 1.04092 1.03652 10.6804 0.949419
4567.76 1.04468 1.03822 10.6437 0.949601
4568.13 1.04675 1.03993 10.6077 0.949783
4568.51 1.0463 1.04156 10.597 0.949966
4568.88 1.04429 1.04305 10.6065 0.950148
4569.26 1.04321 1.04433 10.6123 0.950331
4569.63 1.0445 1.04536 10.5961 0.950513
4570.0 1.04679 1.04613 10.58 0.950696
4570.38 1.0484 1.04667 10.5687 0.950879
4570.75 1.0492 1.04709 10.5591 0.951061
4571.12 1.04986 1.04751 10.5557 0.951244
4571.5 1.05065 1.04805 10.5648 0.951427
4571.87 1.05129 1.04876 10.574 0.951609
4572.25 1.05141 1.04962 10.5928 0.951792
4572.62 1.05064 1.05055 10.6124 0.951974
4573.0 1.04868 1.05147 10.6277 0.952156
4573.37 1.04644 1.0523 10.639 0.952338
4573.74 1.04594 1.053 10.6433 0.95252
4574.12 1.04825 1.05357 10.5943 0.952702
4574.49 1.05159 1.054 10.5457 0.952883
4574.87 1.0538 1.05422 10.5394 0.953064
4575.24 1.05395 1.05409 10.5501 0.953245
4575.61 1.05182 1.05346 10.5736 0.953426
4575.99 1.04764 1.05216 10.6261 0.953606
4576.36 1.04232 1.05009 10.6789 0.953786
4576.74 1.03681 1.04724 10.7448 0.953966
4577.11 1.03207 1.0437 10.8126 0.954145
4577.49 1.02897 1.03962 10.8554 0.954324
4577.86 1.02735 1.03516 10.8727 0.954503
4578.24 1.02597 1.03047 10.8904 0.954681
4578.61 1.0238 1.02566 10.9123 0.954859
4578.99 1.02062 1.02083 10.9342 0.955036
4579.36 1.01643 1.01612 10.9665 0.955213
4579.73 1.01168 1.01167 11.0035 0.955389
4580.11 1.0071 1.00761 11.0413 0.955565
4580.48 1.0033 1.00409 11.0807 0.95574
4580.86 1.00063 1.00115 11.1203 0.955914
4581.23 0.999189 0.998782 11.1464 0.956088
4581.61 0.997874 0.996927 11.1708 0.956262
4581.98 0.995251 0.995526 11.1956 0.956435
4582.36 0.991771 0.994544 11.2208 0.956607
4582.73 0.989834 0.993993 11.2412 0.956778
4583.11 0.991046 0.993939 11.2123 0.956949
4583.48 0.994312 0.994451 11.1835 0.957119
4583.86 0.998069 0.995567 11.1608 0.957288
4584.23 1.00125 0.997279 11.1409 0.957457
4584.61 1.00309 0.999527 11.1284 0.957625
4584.98 1.00351 1.00221 11.1342 0.957791
4585.36 1.00364 1.0052 11.14 0.957958
4585.73 1.00457 1.00844 11.1382 0.958123
4586.11 1.00662 1.01188 11.1354 0.958287
4586.48 1.00984 1.01551 11.1108 0.958451
4586.86 1.01404 1.01929 11.0638 0.958614
4587.24 1.0188 1.02317 11.0166 0.958776
4587.61 1.02371 1.027 10.9652 0.958936
4587.99 1.02842 1.03063 10.9141 0.959096
4588.36 1.03263 1.03392 10.8721 0.959255
4588.74 1.03611 1.03675 10.8341 0.959413
4589.11 1.0387 1.03903 10.8042 0.95957
4589.49 1.04023 1.04068 10.7929 0.959726
4589.86 1.04053 1.04165 10.7815 0.959881
4590.24 1.03955 1.0419 10.7959 0.960034
4590.61 1.03801 1.04139 10.8131 0.960187
4590.99 1.03684 1.04017 10.8258 0.960339
4591.37 1.03623 1.0383 10.8343 0.960489
4591.74 1.03557 1.03589 10.8443 0.960638
4592.12 1.03429 1.03308 10.8676 0.960786
4592.49 1.03192 1.02999 10.891 0.960933
4592.87 1.02807 1.02674 10.9311 0.961078
4593.24 1.02288 1.02346 10.978 0.961223
4593.62 1.01681 1.02027 11.0317 0.961366
4594.0 1.01075 1.01731 11.0998 0.961507
4594.37 1.00631 1.01469 11.1684 0.961648
4594.75 1.00474 1.0125 11.1729 0.961787
4595.12 1.00508 1.01077 11.1721 0.961925
4595.5 1.00576 1.0095 11.1755 0.962061
4595.88 1.00605 1.00863 11.1827 0.962196
4596.25 1.00599 1.00809 11.1904 0.96233
4596.63 1.00578 1.00781 11.2009 0.962462
4597.0 1.00588 1.0077 11.2113 0.962593
4597.38 1.00675 1.00775 11.2152 0.962722
4597.76 1.00811 1.00792 11.2168 0.96285
4598.13 1.0093 1.00819 11.215 0.962976
4598.51 1.01005 1.00854 11.2069 0.963101
4598.88 1.01066 1.00897 11.1989 0.963224
4599.26 1.01138 1.00947 11.1881 0.963346
4599.64 1.01207 1.01003 11.1772 0.963466
4600.01 1.01248 1.01067 11.168 0.963585
4600.39 1.01248 1.01141 11.1601 0.963703
4600.77 1.01207 1.01231 11.1529 0.963819
4601.14 1.01133 1.01338 11.1485 0.963934
4601.52 1.0106 1.01462 11.1441 0.964047
4601.9 1.01029 1.01599 11.1389 0.964159
4602.27 1.01103 1.01745 11.1334 0.96427
4602.65 1.01356 1.01901 11.1195 0.964379
4603.03 1.01776 1.02074 11.0929 0.964487
4603.4 1.02242 1.02277 11.0663 0.964593
4603.78 1.02649 1.02524 11.0369 0.964699
4604.16 1.02987 1.02823 11.0077 0.964802
4604.53 1.03273 1.03176 10.9734 0.964905
4604.91 1.03554 1.03576 10.936 0.965006
4605.29 1.03899 1.04016 10.8952 0.965106
4605.66 1.04349 1.04491 10.8422 0.965205
4606.04 1.04879 1.04996 10.7896 0.965302
4606.42 1.05475 1.0553 10.7162 0.965398
4606.79 1.06242 1.06086 10.6394 0.965493
4607.17 1.07321 1.06654 10.5391 0.965587
4607.55 1.08649 1.07219 10.4112 0.965679
4607.92 1.09926 1.07764 10.2896 0.96577
4608.3 1.10884 1.08275 10.2283 0.96586
4608.68 1.11413 1.08739 10.1676 0.965949
4609.06 1.1145 1.09146 10.1653 0.966036
4609.43 1.11131 1.09495 10.1908 0.966122
4609.81 1.10716 1.09786 10.2194 0.966207
4610.19 1.10408 1.10022 10.2557 0.966291
4610.56 1.103 1.10205 10.2921 0.966374
4610.94 1.10439 1.10335 10.2953 0.966456
4611.32 1.10669 1.1041 10.2949 0.966536
4611.7 1.10776 1.10433 10.3051 0.966616
4612.07 1.10671 1.1041 10.3251 0.966694
4612.45 1.10391 1.10361 10.346 0.966771
4612.83 1.10004 1.10306 10.3722 0.966847
4613.21 1.09655 1.10266 10.3986 0.966922
4613.58 1.0949 1.10256 10.4089 0.966996
4613.96 1.09544 1.10278 10.4139 0.967068
4614.34 1.09799 1.10326 10.4035 0.96714
4614.72 1.10178 1.10393 10.3661 0.967211
4615.09 1.10525 1.10471 10.3289 0.96728
4615.47 1.10721 1.10558 10.3163 0.967349
4615.85 1.10829 1.10653 10.3041 0.967416
4616.23 1.10955 1.10758 10.286 0.967483
4616.6 1.11156 1.10871 10.2637 0.967548
4616.98 1.11456 1.10983 10.2382 0.967613
4617.36 1.11822 1.11086 10.2006 0.967676
4617.74 1.12109 1.11172 10.1632 0.967739
4618.11 1.12185 1.11236 10.1581 0.9678
4618.49 1.12103 1.11282 10.1595 0.967861
4618.87 1.11985 1.11318 10.1709 0.96792
4619.25 1.11896 1.11355 10.1947 0.967979
4619.63 1.11834 1.11398 10.2182 0.968037
4620.0 1.11788 1.11445 10.2358 0.968094
4620.38 1.11745 1.1149 10.2534 0.968149
4620.76 1.11692 1.11523 10.2642 0.968205
4621.14 1.11618 1.11537 10.2719 0.968259
4621.52 1.11514 1.1153 10.2776 0.968312
4621.89 1.11378 1.11508 10.2787 0.968364
4622.27 1.11217 1.11477 10.2798 0.968416
4622.65 1.11038 1.11442 10.2997 0.968466
4623.03 1.10852 1.11404 10.321 0.968516
4623.41 1.10671 1.11357 10.344 0.968565
4623.79 1.10501 1.11296 10.3684 0.968613
4624.16 1.10345 1.11217 10.3924 0.968661
4624.54 1.10208 1.11126 10.4142 0.968707
4624.92 1.10096 1.1103 10.4359 0.968753
4625.3 1.10019 1.10942 10.4513 0.968798
4625.68 1.09993 1.1087 10.4649 0.968842
4626.06 1.10034 1.10815 10.4708 0.968885
4626.43 1.1013 1.10774 10.4657 0.968928
4626.81 1.10228 1.10738 10.4602 0.96897
4627.19 1.10288 1.10703 10.4447 0.969011
4627.57 1.10326 1.10666 10.4293 0.969052
4627.95 1.10368 1.10632 10.4116 0.969091
4628.33 1.10444 1.10609 10.3928 0.96913
4628.71 1.10583 1.10601 10.3747 0.969169
4629.09 1.10795 1.10604 10.3585 0.969206
4629.46 1.11066 1.10609 10.3424 0.969243
4629.84 1.11355 1.10599 10.3379 0.969279
4630.22 1.11514 1.10559 10.3346 0.969315
4630.6 1.11371 1.10477 10.3518 0.96935
4630.98 1.10955 1.10353 10.3874 0.969384
4631.36 1.10482 1.10191 10.423 0.969418
4631.74 1.10102 1.09997 10.4575 0.969451
4632.12 1.09783 1.09776 10.4921 0.969483
4632.5 1.09463 1.09531 10.527 0.969515
4632.87 1.09074 1.09259 10.5623 0.969547
4633.25 1.08552 1.08956 10.5994 0.969577
4633.63 1.07978 1.08619 10.6391 0.969607
4634.01 1.07613 1.08251 10.6779 0.969637
4634.39 1.07605 1.07856 10.6799 0.969666
4634.77 1.07623 1.07442 10.6819 0.969694
4635.15 1.07264 1.07016 10.7258 0.969722
4635.53 1.06506 1.06583 10.7922 0.96975
4635.91 1.05585 1.06149 10.8583 0.969776
4636.29 1.04718 1.05719 10.9223 0.969803
4636.67 1.04081 1.053 10.9869 0.969829
4637.05 1.03803 1.04897 11.0188 0.969854
4637.42 1.03796 1.0452 11.0476 0.969879
4637.8 1.03898 1.04176 11.0636 0.969903
4638.18 1.03935 1.03872 11.0685 0.969927
4638.56 1.03727 1.03609 11.08 0.969951
4638.94 1.03212 1.03387 11.1239 0.969974
4639.32 1.02632 1.03199 11.168 0.969997
4639.7 1.02248 1.03038 11.1863 0.970019
4640.08 1.02113 1.02895 11.1979 0.970041
4640.46 1.02188 1.02764 11.2021 0.970062
4640.84 1.02351 1.02636 11.1961 0.970083
4641.22 1.02381 1.02504 11.1923 0.970104
4641.6 1.02136 1.02361 11.2252 0.970124
4641.98 1.01751 1.02198 11.2582 0.970144
4642.36 1.01409 1.0201 11.2789 0.970164
4642.74 1.01149 1.0179 11.294 0.970183
4643.12 1.0092 1.01532 11.3156 0.970202
4643.5 1.00676 1.01231 11.3514 0.97022
4643.88 1.00377 1.00883 11.3873 0.970239
4644.26 0.999942 1.00491 11.4402 0.970257
4644.64 0.995388 1.00064 11.4944 0.970274
4645.02 0.990392 0.996204 11.5531 0.970292
4645.4 0.985762 0.991848 11.6153 0.970309
4645.78 0.982733 0.987841 11.6627 0.970326
4646.16 0.981808 0.984426 11.6528 0.970342
4646.54 0.981877 0.981769 11.643 0.970359
4646.92 0.9818 0.979956 11.645 0.970375
4647.3 0.981641 0.97902 11.6491 0.970391
4647.68 0.98193 0.978955 11.6461 0.970407
4648.06 0.983062 0.97975 11.6351 0.970422
4648.44 0.985272 0.981399 11.6218 0.970438
4648.82 0.988608 0.98387 11.5892 0.970453
4649.2 0.992585 0.987086 11.5567 0.970468
4649.58 0.996644 0.990921 11.5255 0.970484
4649.96 1.00044 0.995204 11.4949 0.970499
4650.34 1.00376 0.999737 11.4643 0.970514
4650.72 1.0067 1.00432 11.4337 0.970529
4651.1 1.00984 1.00879 11.4031 0.970545
4651.48 1.01362 1.01302 11.3628 0.97056
4651.87 1.01787 1.01693 11.3227 0.970576
4652.25 1.02224 1.02049 11.2825 0.970591
4652.63 1.02623 1.0237 11.2423 0.970607
4653.01 1.0292 1.02661 11.208 0.970623
4653.39 1.031 1.02926 11.1879 0.970639
4653.77 1.03238 1.0317 11.168 0.970655
4654.15 1.03407 1.03404 11.1467 0.970671
4654.53 1.03621 1.0364 11.1253 0.970688
4654.91 1.03878 1.03891 11.1049 0.970705
4655.29 1.04169 1.04171 11.0854 0.970722
4655.67 1.04477 1.04487 11.065 0.97074
4656.05 1.04793 1.04842 11.0412 0.970758
4656.43 1.05116 1.05233 11.0174 0.970776
4656.82 1.05453 1.05658 10.9851 0.970795
4657.2 1.05836 1.0611 10.9513 0.970814
4657.58 1.06306 1.06581 10.9112 0.970834
4657.96 1.06849 1.07058 10.8639 0.970854
4658.34 1.07395 1.07523 10.8195 0.970874
4658.72 1.07881 1.07955 10.7971 0.970895
4659.1 1.08273 1.0833 10.7748 0.970917
4659.48 1.08544 1.08628 10.7591 0.970939
4659.87 1.08696 1.08829 10.7457 0.970962
4660.25 1.08745 1.08919 10.7334 0.970985
4660.63 1.08714 1.08886 10.723 0.971009
4661.01 1.08636 1.08724 10.7128 0.971033
4661.39 1.08525 1.08431 10.7142 0.971059
4661.77 1.08329 1.08011 10.7155 0.971085
4662.15 1.07979 1.07472 10.7474 0.971111
4662.53 1.07443 1.06829 10.7951 0.971139
4662.92 1.06712 1.06095 10.8533 0.971167
4663.3 1.05808 1.05289 10.9355 0.971196
4663.68 1.0481 1.04426 11.0188 0.971225
4664.06 1.03802 1.03523 11.1164 0.971256
4664.44 1.02867 1.02598 11.2161 0.971287
4664.82 1.02084 1.0167 11.3013 0.97132
4665.21 1.01404 1.0076 11.3763 0.971353
4665.59 1.00677 0.9989 11.4544 0.971387
4665.97 0.998276 0.990841 11.5413 0.971422
4666.35 0.989308 0.983675 11.6293 0.971458
4666.73 0.980793 0.977622 11.7077 0.971496
4667.11 0.973463 0.972844 11.7853 0.971534
4667.5 0.967964 0.969428 11.847 0.971573
4667.88 0.964628 0.967385 11.8933 0.971613
4668.26 0.963483 0.966672 11.9313 0.971654
4668.64 0.964326 0.967239 11.924 0.971697
4669.02 0.966409 0.969043 11.9166 0.971741
4669.41 0.969031 0.972026 11.8886 0.971785
4669.79 0.972424 0.976099 11.8556 0.971831
4670.17 0.977223 0.981121 11.7999 0.971878
4670.55 0.98364 0.98689 11.7166 0.971927
4670.93 0.991388 0.99316 11.6337 0.971976
4671.32 1.00005 0.99968 11.5464 0.972027
4671.7 1.00891 1.00622 11.46 0.97208
4672.08 1.01717 1.01259 11.3927 0.972133
4672.46 1.02409 1.01862 11.3324 0.972188
4672.85 1.02894 1.02417 11.2823 0.972244
4673.23 1.03185 1.02914 11.2482 0.972302
4673.61 1.03408 1.03343 11.2143 0.972361
4673.99 1.03665 1.037 11.1818 0.972422
4674.38 1.03939 1.03985 11.1495 0.972484
4674.76 1.04183 1.04202 11.1279 0.972547
4675.14 1.04376 1.04359 11.1114 0.972612
4675.52 1.04508 1.04463 11.1005 0.972679
4675.91 1.04597 1.0452 11.1012 0.972747
4676.29 1.04695 1.04534 11.1018 0.972817
4676.67 1.04833 1.04504 11.1038 0.972888
4677.05 1.04916 1.04429 11.1058 0.972961
4677.44 1.04826 1.04309 11.1207 0.973036
4677.82 1.0457 1.04146 11.1437 0.973112
4678.2 1.04252 1.03947 11.1668 0.97319
4678.58 1.03949 1.03723 11.1904 0.97327
4678.97 1.03683 1.03482 11.2139 0.973351
4679.35 1.03464 1.03235 11.2367 0.973435
4679.73 1.03259 1.02995 11.2595 0.97352
4680.12 1.03027 1.02771 11.2851 0.973607
4680.5 1.02804 1.0258 11.313 0.973695
4680.88 1.02695 1.02435 11.3357 0.973786
4681.26 1.02727 1.02347 11.3391 0.973878
4681.65 1.02763 1.02322 11.3425 0.973973
4682.03 1.02673 1.02361 11.3507 0.974069
4682.41 1.02509 1.02457 11.3597 0.974167
4682.8 1.02387 1.026 11.3605 0.974268
4683.18 1.02419 1.02778 11.3537 0.97437
4683.56 1.02709 1.02978 11.3397 0.974474
4683.95 1.0326 1.03191 11.2893 0.974581
4684.33 1.03818 1.03404 11.2393 0.974689
4684.71 1.04131 1.03608 11.221 0.9748
4685.1 1.04192 1.03793 11.2099 0.974912
4685.48 1.04107 1.03953 11.2051 0.975027
4685.86 1.0397 1.04078 11.2076 0.975144
4686.25 1.03871 1.04167 11.2087 0.975263
4686.63 1.03878 1.04218 11.2001 0.975385
4687.01 1.04003 1.04239 11.1915 0.975508
4687.4 1.04239 1.04239 11.1637 0.975634
4687.78 1.04498 1.04227 11.1305 0.975762
4688.16 1.04659 1.04211 11.1124 0.975893
4688.55 1.04673 1.04195 11.1143 0.976026
4688.93 1.04579 1.04178 11.1178 0.976161
4689.31 1.04424 1.0416 11.1394 0.976299
4689.7 1.0426 1.04144 11.1611 0.976438
4690.08 1.04138 1.04137 11.1794 0.976581
4690.47 1.0408 1.04145 11.1965 0.976726
4690.85 1.04092 1.04177 11.2079 0.976873
4691.23 1.04158 1.04235 11.2101 0.977023
4691.62 1.04228 1.04314 11.2119 0.977175
4692.0 1.0427 1.04409 11.2044 0.97733
4692.39 1.04298 1.04511 11.197 0.977488
4692.77 1.0434 1.04618 11.1818 0.977648
4693.15 1.04427 1.04727 11.1634 0.977811
4693.54 1.04594 1.04839 11.1428 0.977976
4693.92 1.04844 1.04951 11.1184 0.978144
4694.31 1.05133 1.05055 11.0941 0.978315
4694.69 1.05409 1.05137 11.0757 0.978488
4695.07 1.05592 1.05183 11.0573 0.978664
4695.46 1.05601 1.05174 11.0642 0.978843
4695.84 1.05422 1.05101 11.0836 0.979025
4696.23 1.05082 1.04961 11.1099 0.979209
4696.61 1.04648 1.04758 11.1503 0.979396
4696.99 1.0424 1.04504 11.191 0.979585
4697.38 1.03957 1.04212 11.2105 0.979778
4697.76 1.03787 1.03893 11.2297 0.979972
4698.15 1.03687 1.03551 11.2434 0.980169
4698.53 1.03574 1.0319 11.2539 0.980369
4698.92 1.0334 1.02811 11.2729 0.98057
4699.3 1.02952 1.0242 11.3116 0.980774
4699.69 1.02508 1.02029 11.3504 0.980981
4700.07 1.02094 1.0165 11.3881 0.981189
4700.45 1.01693 1.01297 11.4259 0.9814
4700.84 1.01262 1.0098 11.4638 0.981612
4701.22 1.00823 1.00709 11.5019 0.981827
4701.61 1.00441 1.0049 11.5359 0.982044
4701.99 1.00179 1.00325 11.5591 0.982262
4702.38 1.00091 1.00215 11.5824 0.982483
4702.76 1.00205 1.00155 11.574 0.982705
4703.15 1.00435 1.00139 11.5637 0.982929
4703.53 1.00666 1.0016 11.551 0.983155
4703.92 1.00847 1.00213 11.5367 0.983382
4704.3 1.0098 1.0029 11.524 0.983611
4704.69 1.01062 1.00386 11.5158 0.983842
4705.07 1.01091 1.00495 11.5075 0.984074
4705.46 1.01068 1.00617 11.5078 0.984307
4705.84 1.01024 1.00754 11.5088 0.984542
4706.23 1.00998 1.00907 11.5147 0.984779
4706.61 1.0107 1.01079 11.5242 0.985016
4707.0 1.01352 1.01269 11.5209 0.985255
4707.38 1.0182 1.01475 11.4798 0.985495
4707.77 1.02197 1.01691 11.4389 0.985736
4708.15 1.02245 1.01914 11.4272 0.985978
4708.54 1.0208 1.02145 11.4183 0.986222
4708.92 1.01925 1.02383 11.403 0.986466
4709.31 1.01942 1.02629 11.3831 0.986711
4709.69 1.02232 1.0288 11.3565 0.986957
4710.08 1.02772 1.03136 11.3089 0.987204
4710.46 1.03292 1.03394 11.2616 0.987452
4710.85 1.03554 1.03654 11.2447 0.9877
4711.23 1.03667 1.03914 11.231 0.987949
4711.62 1.03842 1.04178 11.2045 0.988199
4712.01 1.04124 1.04446 11.1685 0.988449
4712.39 1.0442 1.04723 11.1347 0.9887
4712.78 1.04662 1.05011 11.1076 0.988951
4713.16 1.04841 1.05314 11.0806 0.989203
4713.55 1.04975 1.05635 11.0632 0.989455
4713.93 1.05168 1.05977 11.0468 0.989708
4714.32 1.05552 1.06344 11.0076 0.98996
4714.71 1.06113 1.06743 10.9515 0.990213
4715.09 1.06728 1.07177 10.903 0.990466
4715.48 1.07291 1.0765 10.8777 0.990719
4715.86 1.07757 1.08162 10.8524 0.990972
4716.25 1.08103 1.08711 10.8211 0.991226
4716.63 1.08412 1.09292 10.7892 0.991479
4717.02 1.08804 1.099 10.7416 0.991732
4717.41 1.09414 1.10531 10.6825 0.991985
4717.79 1.10394 1.11177 10.6085 0.992237
4718.18 1.11718 1.11829 10.4872 0.99249
4718.56 1.13013 1.12471 10.368 0.992742
4718.95 1.13933 1.13084 10.3117 0.992994
4719.34 1.14501 1.13644 10.2621 0.993245
4719.72 1.1486 1.14134 10.2256 0.993496
4720.11 1.15101 1.14542 10.1988 0.993746
4720.5 1.15274 1.1487 10.1768 0.993996
4720.88 1.15395 1.15121 10.1689 0.994245
4721.27 1.15418 1.15307 10.1611 0.994494
4721.65 1.15305 1.15432 10.1809 0.994741
4722.04 1.15087 1.15499 10.2033 0.994988
4722.43 1.1482 1.15508 10.2352 0.995235
4722.81 1.14544 1.15454 10.2737 0.99548
4723.2 1.14289 1.15334 10.3102 0.995724
4723.59 1.14068 1.15145 10.3405 0.995968
4723.97 1.13859 1.14881 10.3708 0.99621
4724.36 1.13634 1.14539 10.3912 0.996451
4724.75 1.13351 1.14116 10.4108 0.996691
4725.13 1.12968 1.13612 10.4245 0.99693
4725.52 1.12468 1.13034 10.4343 0.997168
4725.91 1.11857 1.12392 10.4554 0.997404
4726.29 1.11165 1.11701 10.507 0.997639
4726.68 1.10472 1.10985 10.559 0.997873
4727.07 1.09841 1.10265 10.614 0.998105
4727.45 1.09246 1.09562 10.6696 0.998336
4727.84 1.08634 1.08895 10.7316 0.998565
4728.23 1.07959 1.08274 10.7979 0.998793
4728.61 1.07185 1.07704 10.8716 0.999019
4729.0 1.06361 1.07191 10.9627 0.999243
4729.39 1.0568 1.06745 11.055 0.999465
4729.77 1.05313 1.06382 11.0705 0.999686
4730.16 1.05256 1.0612 11.0833 0.999904
4730.55 1.05457 1.05973 11.0693 1.00012
4730.93 1.05823 1.05947 11.0403 1.00034
4731.32 1.06238 1.06032 11.01 1.00055
4731.71 1.06603 1.06209 10.9769 1.00076
4732.1 1.06852 1.06454 10.9438 1.00097
4732.48 1.06949 1.06742 10.9443 1.00117
4732.87 1.0699 1.07056 10.9452 1.00138
4733.26 1.0709 1.07381 10.9448 1.00158
4733.64 1.07252 1.0771 10.9438 1.00178
4734.03 1.07402 1.08034 10.9415 1.00198
4734.42 1.0751 1.08349 10.9367 1.00217
4734.81 1.07614 1.08653 10.9316 1.00237
4735.19 1.07758 1.08948 10.9109 1.00256
4735.58 1.07987 1.09239 10.8903 1.00274
4735.97 1.0834 1.09535 10.8519 1.00293
4736.36 1.08812 1.09842 10.8058 1.00311
4736.74 1.09367 1.10163 10.7551 1.00329
4737.13 1.09963 1.10494 10.6961 1.00346
4737.52 1.10551 1.10825 10.6385 1.00364
4737.91 1.11092 1.11145 10.5956 1.00381
4738.29 1.116 1.11441 10.5531 1.00398
4738.68 1.12095 1.11712 10.5146 1.00414
4739.07 1.12588 1.11962 10.4777 1.0043
4739.46 1.1308 1.12202 10.441 1.00446
4739.85 1.13545 1.12445 10.4043 1.00462
4740.23 1.13915 1.12697 10.3702 1.00477
4740.62 1.14137 1.12954 10.3603 1.00492
4741.01 1.14212 1.13206 10.3504 1.00506
4741.4 1.14155 1.13443 10.3563 1.0052
4741.79 1.14018 1.13655 10.3671 1.00534
4742.17 1.13868 1.13846 10.3761 1.00548
4742.56 1.13768 1.14023 10.3828 1.00561
4742.95 1.13775 1.14197 10.3869 1.00574
4743.34 1.1393 1.14379 10.3735 1.00586
4743.73 1.14232 1.14574 10.3601 1.00598
4744.11 1.14667 1.14783 10.3222 1.0061
4744.5 1.1518 1.15004 10.2787 1.00621
4744.89 1.15694 1.15233 10.2412 1.00632
4745.28 1.1615 1.15462 10.2098 1.00643
4745.67 1.16509 1.15688 10.1813 1.00653
4746.05 1.16745 1.15903 10.1664 1.00663
4746.44 1.16877 1.161 10.1516 1.00672
4746.83 1.16936 1.16269 10.151 1.00681
4747.22 1.16985 1.16402 10.153 1.0069
4747.61 1.17096 1.16493 10.1536 1.00698
4748.0 1.17256 1.16537 10.1531 1.00706
4748.39 1.17372 1.16538 10.1551 1.00714
4748.77 1.17367 1.16496 10.1663 1.00721
4749.16 1.17202 1.16416 10.1775 1.00728
4749.55 1.16857 1.16298 10.2053 1.00734
4749.94 1.16365 1.16142 10.235 1.0074
4750.33 1.15783 1.15945 10.2754 1.00746
4750.72 1.15203 1.15705 10.3236 1.00752
4751.11 1.14744 1.15425 10.3694 1.00757
4751.49 1.14456 1.15109 10.408 1.00762
4751.88 1.14264 1.14769 10.4468 1.00766
4752.27 1.14088 1.14418 10.4679 1.0077
4752.66 1.13902 1.14071 10.4882 1.00774
4753.05 1.13695 1.13738 10.5081 1.00777
4753.44 1.13474 1.13427 10.5278 1.0078
4753.83 1.13255 1.13142 10.548 1.00783
4754.22 1.13057 1.12883 10.5691 1.00786
4754.61 1.12905 1.12654 10.5899 1.00788
4754.99 1.12826 1.12458 10.5788 1.0079
4755.38 1.1285 1.12297 10.5678 1.00791
4755.77 1.13005 1.12172 10.5533 1.00793
4756.16 1.13219 1.12083 10.5374 1.00794
4756.55 1.1337 1.12025 10.5312 1.00794
4756.94 1.13378 1.11993 10.5402 1.00795
4757.33 1.13226 1.11979 10.5512 1.00795
4757.72 1.12932 1.11974 10.5874 1.00795
4758.11 1.12612 1.11966 10.6238 1.00794
4758.5 1.12388 1.11941 10.6411 1.00794
4758.89 1.12249 1.11883 10.6524 1.00793
4759.28 1.12125 1.11778 10.6632 1.00792
4759.67 1.11952 1.11618 10.6734 1.0079
4760.05 1.11676 1.11398 10.6843 1.00788
4760.44 1.11284 1.11123 10.6994 1.00786
4760.83 1.1087 1.10802 10.7146 1.00784
4761.22 1.10557 1.10445 10.725 1.00782
4761.61 1.10532 1.10062 10.7344 1.00779
4762.0 1.10991 1.09662 10.7046 1.00776
4762.39 1.11641 1.09249 10.6388 1.00773
4762.78 1.11731 1.08829 10.6121 1.00769
4763.17 1.10866 1.08408 10.7323 1.00765
4763.56 1.09476 1.07993 10.8547 1.00761
4763.95 1.08066 1.07596 10.9711 1.00757
4764.34 1.0696 1.07235 11.0885 1.00753
4764.73 1.06401 1.06928 11.1645 1.00748
4765.12 1.06322 1.06694 11.2112 1.00744
4765.51 1.06408 1.06546 11.2447 1.00739
4765.9 1.06461 1.06489 11.2441 1.00733
4766.29 1.06499 1.06521 11.2435 1.00728
4766.68 1.06559 1.06636 11.2234 1.00722
4767.07 1.06672 1.06825 11.2028 1.00716
4767.46 1.06868 1.0708 11.1679 1.0071
4767.85 1.07179 1.07391 11.126 1.00704
4768.24 1.07641 1.07746 11.0769 1.00698
4768.63 1.08275 1.08132 11.0151 1.00691
4769.02 1.09079 1.08538 10.953 1.00684
4769.41 1.09977 1.08957 10.8795 1.00677
4769.8 1.10653 1.09383 10.8067 1.0067
4770.19 1.10788 1.09812 10.8047 1.00663
4770.58 1.10527 1.10242 10.8267 1.00656
4770.97 1.10254 1.10672 10.835 1.00648
4771.36 1.10228 1.111 10.826 1.0064
4771.75 1.10571 1.11522 10.8095 1.00632
4772.14 1.11282 1.11935 10.7445 1.00624
4772.53 1.12073 1.12334 10.6802 1.00616
4772.92 1.12645 1.12713 10.6434 1.00608
4773.31 1.12981 1.1307 10.6124 1.00599
4773.71 1.13181 1.13406 10.5941 1.00591
4774.1 1.13311 1.13725 10.5872 1.00582
4774.49 1.13407 1.14034 10.5795 1.00573
4774.88 1.1351 1.14332 10.5692 1.00564
4775.27 1.13661 1.14616 10.5589 1.00555
4775.66 1.139 1.14878 10.5377 1.00545
4776.05 1.14246 1.15107 10.5155 1.00536
4776.44 1.14705 1.15295 10.4893 1.00526
4776.83 1.15199 1.15433 10.4605 1.00517
4777.22 1.15587 1.15514 10.4437 1.00507
4777.61 1.15768 1.15533 10.4534 1.00497
4778.0 1.15698 1.15487 10.4632 1.00487
4778.39 1.15365 1.1538 10.4822 1.00477
4778.79 1.14849 1.15217 10.5013 1.00467
4779.18 1.1426 1.15008 10.5204 1.00457
4779.57 1.13759 1.14763 10.5397 1.00447
4779.96 1.13532 1.14488 10.5622 1.00436
4780.35 1.13545 1.14186 10.5894 1.00426
4780.74 1.13483 1.13859 10.6191 1.00415
4781.13 1.13121 1.13509 10.6689 1.00405
4781.52 1.12556 1.13144 10.7189 1.00394
4781.91 1.11938 1.12771 10.762 1.00383
4782.31 1.11385 1.12404 10.8034 1.00373
4782.7 1.10995 1.1205 10.8348 1.00362
4783.09 1.10774 1.11712 10.8562 1.00351
4783.48 1.10628 1.11392 10.8765 1.0034
4783.87 1.1048 1.1109 10.8921 1.00329
4784.26 1.10288 1.10806 10.9078 1.00318
4784.65 1.1003 1.10543 10.9464 1.00307
4785.05 1.09743 1.1031 10.9877 1.00296
4785.44 1.09487 1.10114 11.0177 1.00284
4785.83 1.09305 1.09964 11.0402 1.00273
4786.22 1.09227 1.09867 11.0518 1.00262
4786.61 1.09255 1.09825 11.0388 1.00251
4787.0 1.09344 1.09833 11.0259 1.00239
4787.39 1.09455 1.09884 11.0163 1.00228
4787.79 1.09595 1.0997 11.0068 1.00217
4788.18 1.09783 1.10091 10.9861 1.00206
4788.57 1.10033 1.10252 10.9609 1.00194
4788.96 1.10356 1.10466 10.9311 1.00183
4789.35 1.10756 1.10743 10.8946 1.00172
4789.75 1.11221 1.11087 10.8573 1.0016
4790.14 1.11737 1.11492 10.8131 1.00149
4790.53 1.12268 1.11944 10.7692 1.00138
4790.92 1.12784 1.12427 10.7361 1.00127
4791.31 1.13301 1.12931 10.7055 1.00115
4791.71 1.13853 1.13453 10.6645 1.00104
4792.1 1.1446 1.13994 10.6143 1.00093
4792.49 1.15124 1.14549 10.5636 1.00082
4792.88 1.15828 1.15106 10.5107 1.00071
4793.27 1.16519 1.15643 10.4582 1.0006
4793.67 1.17128 1.16134 10.4141 1.00049
4794.06 1.17544 1.16557 10.3708 1.00038
4794.45 1.17652 1.16901 10.3608 1.00027
4794.84 1.17513 1.17165 10.3696 1.00016
4795.24 1.17308 1.17356 10.38 1.00005
4795.63 1.17145 1.17482 10.3935 0.99994
4796.02 1.17022 1.17547 10.4069 0.999832
4796.41 1.16925 1.17551 10.4196 0.999726
4796.8 1.16832 1.17493 10.4323 0.999619
4797.2 1.16726 1.17375 10.4413 0.999514
4797.59 1.1665 1.17205 10.449 0.999409
4797.98 1.16673 1.16998 10.4518 0.999305
4798.37 1.16809 1.16776 10.4489 0.999201
4798.77 1.17009 1.16563 10.447 0.999098
4799.16 1.17206 1.16382 10.4506 0.998996
4799.55 1.173 1.16244 10.4541 0.998895
4799.95 1.17196 1.1615 10.4742 0.998794
4800.34 1.16879 1.16093 10.4966 0.998694
4800.73 1.16372 1.1606 10.5371 0.998595
4801.12 1.15862 1.16041 10.5907 0.998496
4801.52 1.15662 1.1603 10.624 0.998399
4801.91 1.15859 1.16024 10.6083 0.998302
4802.3 1.16135 1.16021 10.5927 0.998206
4802.7 1.16204 1.16011 10.5983 0.998111
4803.09 1.16042 1.15987 10.6039 0.998016
4803.48 1.15697 1.15937 10.6197 0.997923
4803.87 1.15285 1.15854 10.6397 0.99783
4804.27 1.14958 1.15734 10.6627 0.997738
4804.66 1.14791 1.15581 10.6897 0.997648
4805.05 1.14765 1.154 10.7131 0.997558
4805.45 1.14827 1.15199 10.7133 0.997469
4805.84 1.14847 1.14987 10.7136 0.997381
4806.23 1.14704 1.1477 10.7261 0.997294
4806.63 1.14416 1.14557 10.741 0.997208
4807.02 1.14058 1.14357 10.758 0.997123
4807.41 1.13728 1.14184 10.7768 0.997038
4807.81 1.13545 1.14049 10.7918 0.996955
4808.2 1.13537 1.13962 10.7964 0.996873
4808.59 1.13566 1.13924 10.8011 0.996792
4808.99 1.13517 1.13932 10.8127 0.996712
4809.38 1.13455 1.13976 10.8243 0.996634
4809.77 1.13483 1.14047 10.828 0.996556
4810.17 1.13614 1.14139 10.8282 0.996479
4810.56 1.13811 1.1425 10.8269 0.996404
4810.95 1.14017 1.1438 10.8234 0.996329
4811.35 1.14152 1.1453 10.8217 0.996256
4811.74 1.14183 1.147 10.833 0.996184
4812.14 1.14211 1.14886 10.8442 0.996113
4812.53 1.14346 1.15086 10.8254 0.996043
4812.92 1.14597 1.153 10.8007 0.995975
4813.32 1.1493 1.1553 10.7719 0.995907
4813.71 1.15309 1.15779 10.7399 0.995841
4814.1 1.15692 1.1605 10.7077 0.995776
4814.5 1.16042 1.16339 10.6745 0.995713
4814.89 1.16334 1.16639 10.6414 0.99565
4815.29 1.16555 1.1694 10.6131 0.995589
4815.68 1.16744 1.17231 10.585 0.995529
4816.07 1.16949 1.17504 10.5638 0.995471
4816.47 1.17207 1.17756 10.5455 0.995414
4816.86 1.17544 1.17982 10.5231 0.995358
4817.26 1.17963 1.1818 10.4949 0.995304
4817.65 1.18431 1.18342 10.466 0.995251
4818.04 1.18904 1.18462 10.4316 0.995199
4818.44 1.19308 1.1853 10.3974 0.995149
4818.83 1.19567 1.18536 10.3831 0.9951
4819.23 1.19607 1.18472 10.3726 0.995053
4819.62 1.19366 1.18335 10.3865 0.995007
4820.02 1.18888 1.18125 10.4196 0.994962
4820.41 1.18311 1.17846 10.4556 0.994919
4820.8 1.17748 1.17511 10.4989 0.994878
4821.2 1.1726 1.17133 10.5425 0.994838
4821.59 1.16878 1.16728 10.5839 0.994799
4821.99 1.16537 1.16309 10.6257 0.994762
4822.38 1.16157 1.15892 10.6565 0.994727
4822.78 1.15771 1.15489 10.6829 0.994693
4823.17 1.15475 1.15112 10.7049 0.99466
4823.57 1.15284 1.14772 10.721 0.99463
4823.96 1.15127 1.14472 10.7364 0.9946
4824.36 1.14949 1.14212 10.7481 0.994573
4824.75 1.14753 1.13986 10.7599 0.994547
4825.15 1.14568 1.13787 10.7663 0.994523
4825.54 1.14524 1.13611 10.7719 0.9945
4825.94 1.14774 1.1346 10.7422 0.994479
4826.33 1.15246 1.13339 10.6887 0.99446
4826.72 1.15698 1.13249 10.6519 0.994442
4827.12 1.1595 1.13186 10.6503 0.994427
4827.51 1.15926 1.13141 10.6506 0.994412
4827.91 1.1559 1.13101 10.6987 0.9944
4828.3 1.14994 1.13054 10.7472 0.994389
4828.7 1.14222 1.12992 10.8342 0.994381
4829.09 1.13432 1.12915 10.9346 0.994373
4829.49 1.12818 1.12826 11.0018 0.994368
4829.89 1.12456 1.12733 11.0322 0.994365
4830.28 1.12299 1.12643 11.0588 0.994363
4830.68 1.12288 1.12567 11.0702 0.994363
4831.07 1.12348 1.12511 11.0816 0.994365
4831.47 1.12408 1.12482 11.0842 0.994369
4831.86 1.12424 1.12486 11.0861 0.994375
4832.26 1.1237 1.12525 11.088 0.994383
4832.65 1.12299 1.12596 11.0899 0.994392
4833.05 1.12324 1.12691 11.0862 0.994404
4833.44 1.12462 1.128 11.073 0.994417
4833.84 1.12611 1.12911 11.0615 0.994433
4834.23 1.12683 1.13011 11.0646 0.99445
4834.63 1.12682 1.13095 11.0678 0.994469
4835.03 1.12632 1.13158 11.0735 0.994491
4835.42 1.12585 1.13196 11.0799 0.994514
4835.82 1.12599 1.13208 11.0749 0.99454
4836.21 1.1268 1.1319 11.0604 0.994567
4836.61 1.12783 1.13142 11.0508 0.994596
4837.0 1.12859 1.13061 11.0539 0.994628
4837.4 1.1286 1.12947 11.057 0.994662
4837.8 1.12753 1.12804 11.0693 0.994697
4838.19 1.12556 1.12638 11.0817 0.994735
4838.59 1.12302 1.12457 11.0974 0.994775
4838.98 1.12052 1.12277 11.1144 0.994817
4839.38 1.11875 1.12107 11.1286 0.994861
4839.77 1.11791 1.11954 11.1396 0.994908
4840.17 1.11756 1.11822 11.1497 0.994956
4840.57 1.11737 1.11712 11.1561 0.995007
4840.96 1.1173 1.11625 11.1625 0.99506
4841.36 1.11738 1.11567 11.1634 0.995115
4841.75 1.11757 1.11546 11.1638 0.995173
4842.15 1.11785 1.11569 11.1612 0.995233
4842.55 1.11815 1.11641 11.1569 0.995295
4842.94 1.11843 1.11757 11.1538 0.995359
4843.34 1.11864 1.11908 11.1529 0.995425
4843.74 1.1187 1.12081 11.1513 0.995494
4844.13 1.11869 1.12265 11.1422 0.995565
4844.53 1.1192 1.12451 11.1331 0.995639
4844.92 1.12083 1.12635 11.1132 0.995715
4845.32 1.12368 1.12814 11.0909 0.995793
4845.72 1.12763 1.12986 11.0627 0.995874
4846.11 1.13196 1.13143 11.0296 0.995957
4846.51 1.13542 1.13276 11.0095 0.996042
4846.91 1.13738 1.13377 11.0222 0.99613
4847.3 1.13833 1.13441 11.035 0.99622
4847.7 1.13875 1.13469 11.0475 0.996312
4848.1 1.13867 1.13465 11.0601 0.996407
4848.49 1.13802 1.13432 11.0735 0.996504
4848.89 1.13678 1.13374 11.0871 0.996603
4849.29 1.13495 1.13291 11.1018 0.996704
4849.68 1.13276 1.13178 11.1176 0.996808
4850.08 1.13067 1.13028 11.1339 0.996913
4850.48 1.12882 1.12838 11.1524 0.997021
4850.87 1.1266 1.12609 11.1708 0.99713
4851.27 1.1234 1.12344 11.2012 0.997242
4851.67 1.11907 1.12052 11.2326 0.997356
4852.07 1.1136 1.11733 11.2727 0.997471
4852.46 1.10724 1.1138 11.3175 0.997588
4852.86 1.10037 1.10981 11.3684 0.997708
4853.26 1.09338 1.10522 11.4288 0.997829
4853.65 1.0867 1.09995 11.4891 0.997952
4854.05 1.08065 1.09402 11.5462 0.998076
4854.45 1.07537 1.08756 11.6038 0.998203
4854.85 1.07085 1.08071 11.6524 0.998331
4855.24 1.06662 1.07359 11.6998 0.99846
4855.64 1.06206 1.06623 11.7502 0.998592
4856.04 1.0565 1.05859 11.8027 0.998725
4856.43 1.04928 1.05057 11.8706 0.998859
4856.83 1.04038 1.04212 11.9688 0.998995
4857.23 1.0307 1.03328 12.0692 0.999132
4857.63 1.0211 1.02417 12.1823 0.999271
4858.02 1.01203 1.01497 12.2969 0.999412
4858.42 1.0038 1.00586 12.3975 0.999553
4858.82 0.996524 0.997029 12.4956 0.999696
4859.22 0.99023 0.988593 12.5801 0.999841
4859.61 0.984802 0.980684 12.6531 0.999986
4860.01 0.980009 0.973483 12.718 1.00013
4860.41 0.975692 0.967216 12.7606 1.00028
4860.81 0.971815 0.962146 12.8031 1.00043
4861.2 0.968417 0.958529 12.8311 1.00058
4861.6 0.965754 0.95654 12.8592 1.00073
4862.0 0.964128 0.956224 12.8757 1.00088
4862.4 0.963743 0.957501 12.8883 1.00104
4862.8 0.96475 0.960198 12.891 1.00119
4863.19 0.967118 0.964111 12.8834 1.00135
4863.59 0.97063 0.96908 12.8597 1.0015
4863.99 0.975141 0.975013 12.7824 1.00166
4864.39 0.980657 0.981831 12.7058 1.00182
4864.79 0.987134 0.989385 12.6268 1.00198
4865.18 0.994195 0.997392 12.5485 1.00214
4865.58 1.00138 1.00541 12.4765 1.0023
4865.98 1.00822 1.01293 12.4073 1.00246
4866.38 1.0143 1.01953 12.3464 1.00262
4866.78 1.01931 1.02494 12.2954 1.00279
4867.17 1.02314 1.02912 12.2496 1.00295
4867.57 1.02586 1.03218 12.2251 1.00311
4867.97 1.0279 1.03428 12.2007 1.00328
4868.37 1.02968 1.03554 12.1797 1.00344
4868.77 1.03117 1.03602 12.1591 1.00361
4869.17 1.03221 1.03577 12.1493 1.00377
4869.56 1.03259 1.0349 12.1448 1.00394
4869.96 1.03207 1.0336 12.1573 1.00411
4870.36 1.03067 1.03218 12.1942 1.00427
4870.76 1.02875 1.03096 12.2275 1.00444
4871.16 1.02697 1.03024 12.2394 1.00461
4871.56 1.02662 1.03023 12.2512 1.00478
4871.96 1.02886 1.03096 12.2282 1.00494
4872.35 1.03331 1.03237 12.2011 1.00511
4872.75 1.03907 1.03435 12.1585 1.00528
4873.15 1.04449 1.03683 12.1073 1.00545
4873.55 1.04751 1.03983 12.069 1.00562
4873.95 1.04822 1.0435 12.0518 1.00579
4874.35 1.04974 1.04801 12.0285 1.00595
4874.75 1.05433 1.05344 11.9599 1.00612
4875.15 1.06124 1.05969 11.8919 1.00629
4875.54 1.06925 1.06652 11.8163 1.00646
4875.94 1.07728 1.07358 11.7402 1.00663
4876.34 1.0844 1.08055 11.668 1.0068
4876.74 1.09041 1.08723 11.5985 1.00696
4877.14 1.09566 1.09354 11.5366 1.00713
4877.54 1.10046 1.09947 11.4883 1.0073
4877.94 1.10503 1.10501 11.4414 1.00747
4878.34 1.10948 1.11007 11.4053 1.00763
4878.74 1.11361 1.11447 11.3694 1.0078
4879.14 1.11722 1.11804 11.3386 1.00796
4879.53 1.12008 1.12069 11.3089 1.00813
4879.93 1.12202 1.12245 11.2806 1.00829
4880.33 1.12321 1.12347 11.2534 1.00846
4880.73 1.12403 1.12398 11.2341 1.00862
4881.13 1.12446 1.12413 11.2304 1.00879
4881.53 1.12381 1.12395 11.2292 1.00895
4881.93 1.12155 1.12329 11.257 1.00911
4882.33 1.11792 1.12188 11.2849 1.00927
4882.73 1.11332 1.1195 11.3277 1.00943
4883.13 1.10839 1.11606 11.3739 1.00959
4883.53 1.10385 1.1117 11.4176 1.00975
4883.93 1.09991 1.10674 11.4595 1.00991
4884.33 1.09638 1.10158 11.4957 1.01007
4884.73 1.09308 1.09652 11.5196 1.01022
4885.13 1.08987 1.09173 11.5443 1.01038
4885.53 1.0866 1.08717 11.5799 1.01053
4885.93 1.08306 1.08273 11.6156 1.01069
4886.33 1.07904 1.0783 11.6633 1.01084
4886.73 1.0744 1.07389 11.7138 1.01099
4887.13 1.06907 1.06964 11.7688 1.01114
4887.53 1.06407 1.06575 11.8273 1.01129
4887.93 1.06127 1.06241 11.8686 1.01144
4888.33 1.06125 1.05976 11.8721 1.01159
4888.73 1.06237 1.05787 11.8751 1.01173
4889.13 1.06311 1.05683 11.8729 1.01188
4889.53 1.06297 1.05678 11.8706 1.01202
4889.93 1.06195 1.0579 11.8751 1.01216
4890.33 1.06211 1.06037 11.8811 1.0123
4890.73 1.06624 1.06435 11.8363 1.01244
4891.13 1.07417 1.06987 11.7531 1.01258
4891.53 1.08328 1.07687 11.6754 1.01271
4891.93 1.09186 1.08513 11.6081 1.01285
4892.33 1.09991 1.09437 11.541 1.01298
4892.73 1.1077 1.10428 11.4691 1.01311
4893.13 1.11593 1.11465 11.398 1.01324
4893.53 1.12527 1.12534 11.3061 1.01337
4893.93 1.13562 1.13632 11.2107 1.0135
4894.33 1.14658 1.14751 11.0973 1.01362
4894.73 1.15833 1.15872 10.9713 1.01374
4895.13 1.17153 1.16958 10.8497 1.01386
4895.53 1.18598 1.17965 10.7349 1.01398
4895.93 1.2001 1.18848 10.6242 1.0141
4896.33 1.21209 1.19577 10.5434 1.01422
4896.73 1.21985 1.20144 10.4635 1.01433
4897.13 1.22171 1.20555 10.4604 1.01444
4897.53 1.21924 1.20825 10.4729 1.01455
4897.93 1.21525 1.20972 10.4885 1.01466
4898.33 1.21138 1.21011 10.5064 1.01476
4898.74 1.2083 1.20958 10.5228 1.01487
4899.14 1.20625 1.20832 10.5363 1.01497
4899.54 1.20479 1.20655 10.5498 1.01507
4899.94 1.20326 1.2045 10.5626 1.01517
4900.34 1.20037 1.20236 10.5754 1.01526
4900.74 1.19516 1.20023 10.6311 1.01536
4901.14 1.18935 1.19815 10.6949 1.01545
4901.54 1.18561 1.19611 10.7252 1.01554
4901.94 1.18449 1.19412 10.7334 1.01563
4902.34 1.18498 1.19226 10.7383 1.01572
4902.75 1.18598 1.1906 10.7375 1.01581
4903.15 1.1863 1.18926 10.7393 1.01589
4903.55 1.18526 1.1883 10.7611 1.01597
4903.95 1.18363 1.18767 10.7829 1.01605
4904.35 1.18222 1.18728 10.794 1.01613
4904.75 1.18059 1.18695 10.8035 1.01621
4905.15 1.17792 1.18648 10.8245 1.01629
4905.55 1.17419 1.1857 10.8524 1.01637
4905.96 1.16996 1.18452 10.883 1.01644
4906.36 1.1659 1.18294 10.9179 1.01651
4906.76 1.16288 1.181 10.9505 1.01658
4907.16 1.1613 1.17878 10.969 1.01666
4907.56 1.16042 1.17638 10.9875 1.01672
4907.96 1.15942 1.17385 11.0067 1.01679
4908.36 1.15804 1.17123 11.0259 1.01686
4908.77 1.15627 1.16857 11.0381 1.01693
4909.17 1.15424 1.16597 11.0467 1.01699
4909.57 1.15222 1.16356 11.0509 1.01705
4909.97 1.15055 1.16147 11.0491 1.01712
4910.37 1.14964 1.1598 11.0482 1.01718
4910.77 1.14967 1.15861 11.0514 1.01724
4911.18 1.15025 1.15785 11.0546 1.0173
4911.58 1.15093 1.15745 11.0552 1.01736
4911.98 1.15147 1.15733 11.0556 1.01742
4912.38 1.15172 1.15742 11.0533 1.01748
4912.78 1.15164 1.15763 11.0499 1.01753
4913.19 1.15126 1.15788 11.0443 1.01759
4913.59 1.15067 1.15799 11.036 1.01764
4913.99 1.15002 1.15772 11.032 1.0177
4914.39 1.1495 1.15678 11.0428 1.01775
4914.79 1.14931 1.15486 11.0535 1.01781
4915.2 1.14946 1.15169 11.071 1.01786
4915.6 1.14901 1.14714 11.0886 1.01791
4916.0 1.14682 1.14119 11.1251 1.01797
4916.4 1.14184 1.13395 11.1682 1.01802
4916.81 1.13315 1.12565 11.2447 1.01807
4917.21 1.12134 1.11659 11.3542 1.01812
4917.61 1.10842 1.10703 11.4603 1.01817
4918.01 1.09608 1.09729 11.5543 1.01822
4918.41 1.08528 1.08768 11.6484 1.01827
4918.82 1.07674 1.0785 11.7159 1.01832
4919.22 1.07063 1.0701 11.7841 1.01837
4919.62 1.06691 1.06281 11.8285 1.01842
4920.02 1.06505 1.0569 11.867 1.01847
4920.43 1.06434 1.05259 11.8902 1.01852
4920.83 1.06405 1.04997 11.9012 1.01857
4921.23 1.0635 1.04909 11.9111 1.01862
4921.63 1.06256 1.04988 11.9183 1.01866
4922.04 1.06197 1.05226 11.9231 1.01871
4922.44 1.06254 1.05615 11.9042 1.01876
4922.84 1.06511 1.06147 11.8854 1.01881
4923.25 1.07045 1.06816 11.8303 1.01886
4923.65 1.07886 1.07613 11.7697 1.01891
4924.05 1.09036 1.08521 11.6546 1.01896
4924.45 1.10383 1.09511 11.5087 1.01901
4924.86 1.11731 1.10547 11.3816 1.01906
4925.26 1.12955 1.11593 11.2813 1.01911
4925.66 1.14024 1.12617 11.1865 1.01916
4926.07 1.14939 1.13601 11.1157 1.01921
4926.47 1.15759 1.1454 11.0455 1.01927
4926.87 1.16539 1.15438 10.9806 1.01932
4927.28 1.17263 1.16299 10.9167 1.01937
4927.68 1.17901 1.17123 10.8649 1.01942
4928.08 1.18469 1.17902 10.8186 1.01948
4928.49 1.19016 1.18619 10.7767 1.01953
4928.89 1.19554 1.19254 10.7399 1.01959
4929.29 1.20061 1.19787 10.7056 1.01964
4929.7 1.20491 1.20198 10.6794 1.0197
4930.1 1.20754 1.20477 10.6533 1.01976
4930.5 1.20788 1.20617 10.6577 1.01981
4930.91 1.20645 1.20617 10.6621 1.01987
4931.31 1.20404 1.20482 10.6742 1.01993
4931.71 1.20096 1.20224 10.6886 1.01999
4932.12 1.19726 1.19857 10.7093 1.02005
4932.52 1.19304 1.19405 10.7355 1.02012
4932.92 1.18843 1.18892 10.7664 1.02018
4933.33 1.18388 1.18343 10.808 1.02024
4933.73 1.18035 1.17777 10.8494 1.02031
4934.13 1.17817 1.17204 10.885 1.02037
4934.54 1.17543 1.16627 10.9209 1.02044
4934.94 1.17014 1.16044 10.9784 1.02051
4935.35 1.16227 1.15457 11.0404 1.02058
4935.75 1.1527 1.14877 11.1118 1.02065
4936.15 1.14308 1.14325 11.1894 1.02072
4936.56 1.13567 1.13833 11.2608 1.0208
4936.96 1.13149 1.13427 11.3218 1.02087
4937.36 1.1299 1.13128 11.3734 1.02095
4937.77 1.13011 1.12941 11.3736 1.02102
4938.17 1.13133 1.12865 11.3739 1.0211
4938.58 1.13284 1.12893 11.3475 1.02118
4938.98 1.13445 1.13021 11.3193 1.02126
4939.38 1.13621 1.13246 11.2775 1.02135
4939.79 1.13892 1.13567 11.2301 1.02143
4940.19 1.14379 1.13984 11.1803 1.02152
4940.6 1.15052 1.14492 11.1277 1.02161
4941.0 1.15725 1.15082 11.0753 1.0217
4941.41 1.16294 1.15746 11.0228 1.02179
4941.81 1.16831 1.16465 10.9705 1.02188
4942.21 1.17432 1.17224 10.9063 1.02198
4942.62 1.18188 1.17998 10.8427 1.02207
4943.02 1.1916 1.18762 10.7567 1.02217
4943.43 1.20188 1.19494 10.666 1.02227
4943.83 1.21023 1.20175 10.6029 1.02237
4944.24 1.21617 1.20794 10.56 1.02248
4944.64 1.22089 1.21344 10.5209 1.02258
4945.05 1.22525 1.21826 10.4887 1.02269
4945.45 1.22947 1.22244 10.4576 1.0228
4945.85 1.23358 1.2261 10.4328 1.02291
4946.26 1.23698 1.22937 10.4081 1.02303
4946.66 1.23919 1.2324 10.3937 1.02314
4947.07 1.24062 1.2353 10.3804 1.02326
4947.47 1.24195 1.23813 10.3623 1.02338
4947.88 1.2435 1.24087 10.3418 1.02351
4948.28 1.24534 1.24341 10.3217 1.02363
4948.69 1.24744 1.24563 10.3018 1.02376
4949.09 1.24963 1.24737 10.2829 1.02389
4949.5 1.25171 1.24846 10.2675 1.02402
4949.9 1.25335 1.24874 10.2523 1.02416
4950.31 1.25418 1.2481 10.2632 1.02429
4950.71 1.25366 1.24648 10.2742 1.02443
4951.12 1.25125 1.24388 10.3046 1.02457
4951.52 1.24681 1.24036 10.3403 1.02472
4951.93 1.2404 1.23594 10.3889 1.02486
4952.33 1.2323 1.23067 10.4477 1.02501
4952.74 1.223 1.22455 10.5149 1.02516
4953.14 1.21314 1.21758 10.598 1.02532
4953.55 1.20359 1.20977 10.68 1.02547
4953.95 1.19492 1.20121 10.7479 1.02563
4954.36 1.18684 1.19205 10.8165 1.02579
4954.77 1.17898 1.18255 10.8803 1.02595
4955.17 1.17125 1.17303 10.944 1.02611
4955.58 1.16372 1.16388 11.0051 1.02628
4955.98 1.15695 1.15547 11.0653 1.02644
4956.39 1.15177 1.14811 11.1179 1.02661
4956.79 1.14809 1.14205 11.1615 1.02678
4957.2 1.14478 1.1374 11.2018 1.02695
4957.6 1.14134 1.13425 11.2311 1.02713
4958.01 1.13866 1.13258 11.2599 1.02731
4958.42 1.13773 1.13234 11.2586 1.02748
4958.82 1.13941 1.13341 11.2574 1.02766
4959.23 1.14419 1.13561 11.2097 1.02784
4959.63 1.15052 1.13879 11.1513 1.02803
4960.04 1.15602 1.14277 11.1081 1.02821
4960.44 1.16004 1.14742 11.0755 1.0284
4960.85 1.16333 1.15255 11.0437 1.02859
4961.26 1.16636 1.1579 11.0132 1.02878
4961.66 1.16914 1.16313 10.9834 1.02897
4962.07 1.1715 1.16786 10.9572 1.02916
4962.47 1.17282 1.17177 10.9311 1.02935
4962.88 1.17264 1.17463 10.9354 1.02955
4963.29 1.17139 1.17636 10.9418 1.02974
4963.69 1.16976 1.17699 10.9529 1.02994
4964.1 1.16827 1.17667 10.9658 1.03014
4964.5 1.16728 1.1756 10.9768 1.03034
4964.91 1.16692 1.17397 10.986 1.03054
4965.32 1.16705 1.17202 10.992 1.03075
4965.72 1.16712 1.16997 10.9901 1.03095
4966.13 1.16589 1.16807 10.9906 1.03116
4966.54 1.16272 1.16651 11.0232 1.03136
4966.94 1.15909 1.16544 11.056 1.03157
4967.35 1.15673 1.16493 11.0763 1.03178
4967.75 1.15597 1.16502 11.0947 1.03199
4968.16 1.15658 1.16568 11.1036 1.0322
4968.57 1.15772 1.1669 11.1073 1.03241
4968.97 1.1582 1.16864 11.1053 1.03263
4969.38 1.1582 1.17084 11.0959 1.03284
4969.79 1.15954 1.17344 11.0787 1.03306
4970.19 1.16339 1.1764 11.033 1.03327
4970.6 1.16925 1.17969 10.9876 1.03349
4971.01 1.17639 1.18333 10.9331 1.03371
4971.41 1.18387 1.18724 10.879 1.03392
4971.82 1.19072 1.1913 10.8255 1.03414
4972.23 1.1961 1.19531 10.7725 1.03436
4972.63 1.19927 1.19898 10.7358 1.03458
4973.04 1.20069 1.20212 10.7109 1.0348
4973.45 1.20177 1.2046 10.6914 1.03502
4973.86 1.20313 1.20638 10.6811 1.03525
4974.26 1.20424 1.20741 10.6734 1.03547
4974.67 1.20435 1.20769 10.6797 1.03569
4975.08 1.20237 1.20711 10.6861 1.03592
4975.48 1.19763 1.20556 10.7172 1.03614
4975.89 1.19152 1.20297 10.7499 1.03637
4976.3 1.18585 1.19929 10.7919 1.03659
4976.7 1.18055 1.19451 10.8374 1.03682
4977.11 1.17456 1.18869 10.8932 1.03704
4977.52 1.16729 1.18193 10.9588 1.03727
4977.93 1.15866 1.17439 11.0312 1.0375
4978.33 1.14925 1.16624 11.1182 1.03772
4978.74 1.14069 1.15769 11.2037 1.03795
4979.15 1.13378 1.14888 11.2682 1.03818
4979.56 1.12665 1.13994 11.3333 1.03841
4979.96 1.11736 1.13096 11.412 1.03863
4980.37 1.10668 1.12206 11.4932 1.03886
4980.78 1.09626 1.11343 11.571 1.03909
4981.19 1.08789 1.10533 11.6476 1.03932
4981.59 1.08331 1.09806 11.7069 1.03955
4982.0 1.08167 1.09188 11.7464 1.03977
4982.41 1.07937 1.08699 11.7835 1.04
4982.82 1.07473 1.08344 11.8137 1.04023
4983.22 1.06986 1.08124 11.8429 1.04046
4983.63 1.06694 1.08034 11.8547 1.04069
4984.04 1.06694 1.08071 11.8665 1.04091
4984.45 1.07032 1.08233 11.859 1.04114
4984.86 1.07599 1.08518 11.848 1.04137
4985.26 1.08233 1.08918 11.8081 1.0416
4985.67 1.08892 1.0942 11.7526 1.04182
4986.08 1.09614 1.10002 11.6951 1.04205
4986.49 1.10391 1.10639 11.6352 1.04228
4986.89 1.11159 1.11306 11.5758 1.0425
4987.3 1.11859 1.11976 11.5175 1.04273
4987.71 1.12446 1.12628 11.4597 1.04295
4988.12 1.12901 1.13246 11.4091 1.04318
4988.53 1.13297 1.1382 11.3587 1.0434
4988.94 1.13716 1.14347 11.3102 1.04362
4989.34 1.1418 1.14826 11.2624 1.04385
4989.75 1.14686 1.15255 11.2154 1.04407
4990.16 1.15209 1.15632 11.1689 1.04429
4990.57 1.15711 1.15952 11.1244 1.04451
4990.98 1.16145 1.16215 11.0827 1.04473
4991.39 1.16453 1.16431 11.047 1.04495
4991.79 1.1661 1.16612 11.0337 1.04517
4992.2 1.16671 1.16771 11.0204 1.04539
4992.61 1.16687 1.16914 11.022 1.04561
4993.02 1.16663 1.17042 11.0236 1.04583
4993.43 1.16594 1.17147 11.0326 1.04604
4993.84 1.16477 1.17222 11.0435 1.04626
4994.24 1.16315 1.17263 11.0588 1.04647
4994.65 1.16156 1.17267 11.0771 1.04668
4995.06 1.16078 1.17235 11.0899 1.0469
4995.47 1.16087 1.17164 11.0942 1.04711
4995.88 1.16092 1.17049 11.0994 1.04732
4996.29 1.16017 1.16885 11.1083 1.04753
4996.7 1.15836 1.16668 11.1173 1.04774
4997.11 1.15541 1.16395 11.1334 1.04794
4997.51 1.15175 1.16064 11.1496 1.04815
4997.92 1.14787 1.15675 11.1756 1.04835
4998.33 1.14397 1.15228 11.2044 1.04856
4998.74 1.14011 1.14733 11.2406 1.04876
4999.15 1.13619 1.14205 11.2821 1.04896
4999.56 1.13206 1.1366 11.3258 1.04916
4999.97 1.1276 1.13114 11.3728 1.04936
5000.38 1.12284 1.12576 11.4203 1.04956
5000.79 1.11808 1.12045 11.4688 1.04975
5001.2 1.11417 1.11518 11.5175 1.04995
5001.61 1.11177 1.10995 11.5235 1.05014
5002.01 1.11039 1.10481 11.5291 1.05033
5002.42 1.10929 1.09988 11.5356 1.05052
5002.83 1.10827 1.09531 11.5423 1.05071
5003.24 1.10735 1.09119 11.5499 1.0509
5003.65 1.10691 1.08756 11.5583 1.05108
5004.06 1.10757 1.08445 11.5612 1.05127
5004.47 1.10898 1.08187 11.5558 1.05145
5004.88 1.10947 1.07985 11.554 1.05163
5005.29 1.10816 1.07845 11.5671 1.05181
5005.7 1.10614 1.07766 11.5802 1.05199
5006.11 1.10469 1.07746 11.5872 1.05217
5006.52 1.10478 1.07777 11.5942 1.05234
5006.93 1.10703 1.07846 11.5804 1.05252
5007.34 1.11014 1.07943 11.5615 1.05269
5007.75 1.112 1.08056 11.5577 1.05286
5008.16 1.11189 1.08177 11.5638 1.05303
5008.57 1.11015 1.08293 11.5725 1.0532
5008.98 1.10723 1.0839 11.5848 1.05337
5009.39 1.10379 1.08456 11.5986 1.05354
5009.8 1.10049 1.0848 11.6175 1.0537
5010.21 1.09807 1.08452 11.6366 1.05387
5010.62 1.09676 1.08365 11.6724 1.05403
5011.03 1.09493 1.08215 11.7084 1.05419
5011.44 1.09081 1.08 11.7645 1.05436
5011.85 1.08481 1.0773 11.8255 1.05452
5012.26 1.07828 1.07419 11.886 1.05468
5012.67 1.07249 1.07089 11.9465 1.05483
5013.08 1.06865 1.06765 11.9978 1.05499
5013.49 1.06679 1.06466 12.0366 1.05515
5013.9 1.06555 1.06204 12.0659 1.0553
5014.31 1.06401 1.05989 12.064 1.05545
5014.72 1.06234 1.05827 12.0629 1.05561
5015.13 1.06082 1.05728 12.0825 1.05576
5015.54 1.05969 1.05697 12.1022 1.05591
5015.95 1.05919 1.05741 12.13 1.05606
5016.36 1.0595 1.05857 12.1594 1.05621
5016.77 1.06079 1.06039 12.1238 1.05636
5017.18 1.06295 1.06274 12.0546 1.05651
5017.59 1.06569 1.06548 11.994 1.05665
5018.0 1.06881 1.06848 11.9432 1.0568
5018.41 1.07214 1.0716 11.8964 1.05694
5018.82 1.07555 1.07472 11.86 1.05709
5019.23 1.07887 1.07774 11.8249 1.05723
5019.64 1.08191 1.0806 11.8039 1.05737
5020.05 1.0843 1.08329 11.783 1.05751
5020.46 1.08577 1.08588 11.7708 1.05765
5020.88 1.08685 1.08849 11.7598 1.05779
5021.29 1.0883 1.09121 11.7407 1.05793
5021.7 1.09051 1.09409 11.7182 1.05807
5022.11 1.09366 1.09712 11.6893 1.05821
5022.52 1.09757 1.10022 11.6542 1.05834
5022.93 1.10178 1.10333 11.6185 1.05848
5023.34 1.10568 1.10639 11.5809 1.05862
5023.75 1.1085 1.10937 11.5479 1.05875
5024.16 1.10981 1.11224 11.5456 1.05889
5024.57 1.11015 1.11501 11.5433 1.05902
5024.99 1.11028 1.1177 11.5413 1.05915
5025.4 1.11104 1.12039 11.5394 1.05929
5025.81 1.11318 1.12321 11.5095 1.05942
5026.22 1.11652 1.12624 11.4705 1.05955
5026.63 1.12045 1.12951 11.4285 1.05968
5027.04 1.12483 1.133 11.3842 1.05981
5027.45 1.12999 1.13673 11.336 1.05994
5027.86 1.13603 1.14068 11.281 1.06007
5028.28 1.14278 1.14488 11.2246 1.0602
5028.69 1.1499 1.1493 11.1604 1.06033
5029.1 1.15675 1.15386 11.0966 1.06045
5029.51 1.16273 1.15844 11.0495 1.06058
5029.92 1.16751 1.16297 11.0027 1.06071
5030.33 1.17097 1.16743 10.9691 1.06084
5030.74 1.17361 1.17185 10.9388 1.06096
5031.16 1.17621 1.17618 10.9088 1.06109
5031.57 1.17943 1.18029 10.879 1.06121
5031.98 1.18382 1.18384 10.8397 1.06134
5032.39 1.18887 1.18645 10.7882 1.06147
5032.8 1.1928 1.18776 10.7493 1.06159
5033.21 1.19431 1.18756 10.747 1.06171
5033.63 1.19313 1.18581 10.7475 1.06184
5034.04 1.1892 1.18265 10.788 1.06196
5034.45 1.18282 1.17831 10.8287 1.06209
5034.86 1.17443 1.17299 10.9084 1.06221
5035.27 1.16475 1.16688 10.9945 1.06233
5035.69 1.15458 1.16007 11.0857 1.06246
5036.1 1.14435 1.15263 11.1799 1.06258
5036.51 1.13426 1.14464 11.2712 1.0627
5036.92 1.12455 1.13621 11.3596 1.06283
5037.33 1.11554 1.1275 11.4449 1.06295
5037.75 1.10748 1.11875 11.5223 1.06307
5038.16 1.10058 1.11024 11.5963 1.06319
5038.57 1.09487 1.10235 11.6455 1.06332
5038.98 1.08995 1.09541 11.6949 1.06344
5039.4 1.08548 1.08972 11.7361 1.06356
5039.81 1.08171 1.0855 11.7771 1.06368
5040.22 1.07901 1.08283 11.8015 1.06381
5040.63 1.0778 1.08174 11.821 1.06393
5041.04 1.07845 1.08226 11.8228 1.06405
5041.46 1.08129 1.0844 11.8123 1.06417
5041.87 1.08655 1.08811 11.778 1.0643
5042.28 1.09377 1.09323 11.7101 1.06442
5042.7 1.10165 1.09953 11.6433 1.06454
5043.11 1.10928 1.1067 11.5784 1.06466
5043.52 1.11668 1.11445 11.514 1.06479
5043.93 1.12414 1.12258 11.4463 1.06491
5044.35 1.13247 1.13091 11.3793 1.06503
5044.76 1.14222 1.13919 11.2871 1.06516
5045.17 1.15173 1.14711 11.1922 1.06528
5045.58 1.15874 1.15425 11.1313 1.0654
5046.0 1.16335 1.1602 11.0858 1.06553
5046.41 1.16705 1.16466 11.0482 1.06565
5046.82 1.17092 1.1675 11.0181 1.06578
5047.24 1.17551 1.16881 10.9879 1.0659
5047.65 1.17956 1.16882 10.9572 1.06603
5048.06 1.17888 1.16782 10.9434 1.06615
5048.47 1.17151 1.16612 11.0263 1.06628
5048.89 1.1617 1.16401 11.1103 1.0664
5049.3 1.15412 1.16176 11.1515 1.06653
5049.71 1.15062 1.15961 11.1915 1.06666
5050.13 1.15198 1.15779 11.1909 1.06679
5050.54 1.15654 1.15651 11.1795 1.06691
5050.95 1.16157 1.15591 11.1626 1.06704
5051.37 1.16544 1.15611 11.1423 1.06717
5051.78 1.16737 1.15716 11.1308 1.0673
5052.19 1.16755 1.1591 11.1305 1.06743
5052.61 1.1673 1.16189 11.1283 1.06756
5053.02 1.168 1.16543 11.1207 1.06769
5053.43 1.17102 1.16963 11.1097 1.06782
5053.85 1.17695 1.17435 11.0605 1.06795
5054.26 1.18386 1.1795 11.0115 1.06808
5054.67 1.18979 1.18503 10.9583 1.06821
5055.09 1.19517 1.19088 10.905 1.06835
5055.5 1.20111 1.1969 10.8546 1.06848
5055.91 1.20789 1.20293 10.8053 1.06862
5056.33 1.21527 1.20872 10.76 1.06875
5056.74 1.22185 1.2141 10.7177 1.06889
5057.16 1.22533 1.219 10.6894 1.06902
5057.57 1.22583 1.22346 10.6837 1.06916
5057.98 1.22686 1.22753 10.6728 1.06929
5058.4 1.23075 1.23127 10.641 1.06943
5058.81 1.23656 1.23459 10.6093 1.06957
5059.23 1.24268 1.23732 10.5768 1.0697
5059.64 1.24643 1.23921 10.5444 1.06984
5060.05 1.24547 1.24009 10.5601 1.06998
5060.47 1.24109 1.23984 10.5842 1.07012
5060.88 1.23585 1.23844 10.6033 1.07026
5061.3 1.23085 1.23598 10.6199 1.07039
5061.71 1.22631 1.23258 10.6368 1.07053
5062.12 1.22221 1.22839 10.6539 1.07067
5062.54 1.21838 1.22354 10.6723 1.07081
5062.95 1.21452 1.21815 10.6934 1.07095
5063.37 1.21019 1.21232 10.7197 1.07109
5063.78 1.20509 1.20615 10.7731 1.07122
5064.2 1.19915 1.19976 10.8268 1.07136
5064.61 1.19247 1.19331 10.8883 1.0715
5065.02 1.18551 1.18703 10.9504 1.07164
5065.44 1.17888 1.18113 11.0131 1.07178
5065.85 1.17336 1.17579 11.0763 1.07191
5066.27 1.1697 1.17107 11.1169 1.07205
5066.68 1.16732 1.16698 11.145 1.07219
5067.1 1.16479 1.1635 11.1782 1.07232
5067.51 1.16163 1.16066 11.2174 1.07246
5067.93 1.15839 1.15851 11.2546 1.0726
5068.34 1.15572 1.15712 11.2872 1.07273
5068.75 1.15428 1.15647 11.3161 1.07287
5069.17 1.15428 1.15642 11.3206 1.073
5069.58 1.15461 1.15677 11.3252 1.07313
5070.0 1.1543 1.15732 11.3253 1.07327
5070.41 1.15396 1.15792 11.3253 1.0734
5070.83 1.15451 1.15849 11.3128 1.07353
5071.24 1.15609 1.15902 11.2972 1.07366
5071.66 1.15841 1.15951 11.271 1.07379
5072.07 1.16016 1.15996 11.2385 1.07392
5072.49 1.15942 1.1603 11.217 1.07405
5072.9 1.15647 1.16048 11.2086 1.07418
5073.32 1.1541 1.16039 11.1994 1.07431
5073.73 1.15407 1.15996 11.1882 1.07444
5074.15 1.15611 1.15913 11.1775 1.07456
5074.56 1.15941 1.15786 11.1693 1.07469
5074.98 1.16223 1.15616 11.1611 1.07481
5075.39 1.16298 1.15401 11.1705 1.07493
5075.81 1.16134 1.15139 11.1808 1.07506
5076.23 1.15744 1.14821 11.2352 1.07518
5076.64 1.15176 1.14438 11.3024 1.0753
5077.06 1.14493 1.13985 11.3777 1.07542
5077.47 1.13762 1.13469 11.4586 1.07553
5077.89 1.1305 1.12913 11.5371 1.07565
5078.3 1.12396 1.12348 11.6124 1.07577
5078.72 1.11807 1.11807 11.6725 1.07588
5079.13 1.11298 1.11316 11.6929 1.07599
5079.55 1.10894 1.10886 11.7121 1.0761
5079.96 1.1061 1.10518 11.7226 1.07621
5080.38 1.10417 1.10209 11.7331 1.07632
5080.8 1.10277 1.09965 11.737 1.07643
5081.21 1.10122 1.09796 11.7406 1.07654
5081.63 1.09897 1.09722 11.7363 1.07664
5082.04 1.09686 1.09763 11.7298 1.07674
5082.46 1.09632 1.09928 11.7077 1.07685
5082.87 1.09786 1.10213 11.6763 1.07695
5083.29 1.1013 1.10602 11.6357 1.07704
5083.71 1.10621 1.11069 11.5844 1.07714
5084.12 1.11189 1.11587 11.5266 1.07724
5084.54 1.11769 1.12138 11.4526 1.07733
5084.95 1.1231 1.1271 11.3829 1.07742
5085.37 1.1279 1.13301 11.3381 1.07751
5085.79 1.13274 1.13912 11.2936 1.0776
5086.2 1.13831 1.14537 11.2491 1.07769
5086.62 1.14486 1.15166 11.2048 1.07777
5087.04 1.15246 1.15781 11.1539 1.07785
5087.45 1.16032 1.16367 11.1016 1.07793
5087.87 1.16735 1.16917 11.0626 1.07801
5088.28 1.17312 1.17433 11.0309 1.07809
5088.7 1.17768 1.17923 11.0059 1.07816
5089.12 1.18133 1.18399 10.9883 1.07824
5089.53 1.18458 1.18863 10.9736 1.07831
5089.95 1.18803 1.19307 10.9648 1.07838
5090.37 1.19242 1.19717 10.9543 1.07844
5090.78 1.19763 1.20072 10.9343 1.07851
5091.2 1.20138 1.20354 10.9144 1.07857
5091.62 1.20183 1.2055 10.9325 1.07863
5092.03 1.20016 1.20656 10.9507 1.07869
5092.45 1.19828 1.20674 10.9684 1.07874
5092.87 1.19787 1.20612 10.9862 1.0788
5093.28 1.2002 1.20477 10.9777 1.07885
5093.7 1.2032 1.20272 10.9567 1.0789
5094.12 1.20282 1.19998 10.9649 1.07894
5094.53 1.19804 1.1965 11.0004 1.07898
5094.95 1.19073 1.19228 11.0427 1.07903
5095.37 1.18263 1.18736 11.0973 1.07906
5095.78 1.17506 1.18185 11.1546 1.0791
5096.2 1.16883 1.17594 11.2221 1.07913
5096.62 1.16375 1.16987 11.2887 1.07916
5097.03 1.15948 1.16391 11.3201 1.07919
5097.45 1.15572 1.1583 11.3515 1.07922
5097.87 1.15218 1.15327 11.3897 1.07924
5098.29 1.1486 1.14893 11.4289 1.07926
5098.7 1.1447 1.14539 11.472 1.07928
5099.12 1.14035 1.14267 11.5168 1.07929
5099.54 1.13557 1.14075 11.5614 1.0793
5099.95 1.13119 1.1396 11.6059 1.07931
5100.37 1.12875 1.1391 11.6261 1.07932
5100.79 1.12876 1.13912 11.6111 1.07932
5101.21 1.13048 1.13953 11.5937 1.07932
5101.62 1.133 1.14019 11.5693 1.07932
5102.04 1.13533 1.141 11.5474 1.07931
5102.46 1.13677 1.14187 11.5488 1.0793
5102.88 1.13755 1.14266 11.5502 1.07929
5103.29 1.13801 1.14325 11.5545 1.07927
5103.71 1.13802 1.1435 11.559 1.07925
5104.13 1.13736 1.1433 11.5698 1.07923
5104.55 1.13601 1.14261 11.5823 1.07921
5104.96 1.13409 1.14147 11.6002 1.07918
5105.38 1.13188 1.13996 11.6214 1.07915
5105.8 1.12981 1.13819 11.6309 1.07911
5106.22 1.12826 1.13628 11.6275 1.07907
5106.63 1.12751 1.13434 11.6238 1.07903
5107.05 1.12762 1.13247 11.6193 1.07899
5107.47 1.12829 1.1308 11.6155 1.07894
5107.89 1.12916 1.12947 11.6148 1.07889
5108.31 1.12969 1.12861 11.6145 1.07883
5108.72 1.12951 1.12833 11.6364 1.07877
5109.14 1.12875 1.12871 11.6584 1.07871
5109.56 1.12776 1.12977 11.66 1.07864
5109.98 1.12726 1.13153 11.6584 1.07857
5110.4 1.12807 1.13394 11.6466 1.0785
5110.81 1.13073 1.13696 11.6308 1.07843
5111.23 1.13555 1.1405 11.6077 1.07835
5111.65 1.1419 1.14449 11.579 1.07826
5112.07 1.1483 1.14885 11.544 1.07818
5112.49 1.15405 1.15357 11.4997 1.07809
5112.91 1.15943 1.15865 11.4539 1.078
5113.32 1.16473 1.16409 11.403 1.07791
5113.74 1.17014 1.1698 11.3518 1.07781
5114.16 1.17575 1.1756 11.2957 1.07771
5114.58 1.18145 1.18125 11.2401 1.07761
5115.0 1.18705 1.18647 11.1893 1.07751
5115.42 1.19236 1.19108 11.1392 1.0774
5115.83 1.19719 1.19498 11.0997 1.07729
5116.25 1.20132 1.19817 11.0629 1.07718
5116.67 1.20453 1.20064 11.0353 1.07707
5117.09 1.2066 1.20235 11.0125 1.07695
5117.51 1.20733 1.20317 11.0023 1.07683
5117.93 1.20689 1.20296 11.0048 1.07671
5118.35 1.20576 1.20161 11.0177 1.07659
5118.77 1.2039 1.19911 11.0501 1.07647
5119.18 1.20045 1.19555 11.0879 1.07634
5119.6 1.19467 1.19106 11.1464 1.07621
5120.02 1.18617 1.18574 11.2071 1.07609
5120.44 1.17523 1.17967 11.3014 1.07595
5120.86 1.16422 1.17288 11.3968 1.07582
5121.28 1.15546 1.16547 11.4405 1.07569
5121.7 1.14863 1.15755 11.4789 1.07555
5122.12 1.14255 1.14933 11.5213 1.07542
5122.54 1.13638 1.14103 11.5653 1.07528
5122.96 1.12951 1.13289 11.6212 1.07514
5123.37 1.12196 1.12513 11.6852 1.075
5123.79 1.11427 1.11793 11.7595 1.07486
5124.21 1.10701 1.11142 11.8462 1.07472
5124.63 1.10077 1.10568 11.9259 1.07458
5125.05 1.09587 1.10068 11.9888 1.07443
5125.47 1.09225 1.09643 12.0486 1.07429
5125.89 1.08969 1.09291 12.0912 1.07415
5126.31 1.08765 1.09017 12.1337 1.074
5126.73 1.0858 1.0883 12.1672 1.07385
5127.15 1.08472 1.08737 12.2009 1.07371
5127.57 1.08506 1.08739 12.2003 1.07356
5127.99 1.08671 1.08829 12.1949 1.07341
5128.41 1.08927 1.09 12.1728 1.07327
5128.83 1.0923 1.09236 12.1447 1.07312
5129.25 1.09536 1.09528 12.1073 1.07297
5129.67 1.09873 1.09867 12.0635 1.07282
5130.09 1.10326 1.10243 12.023 1.07268
5130.51 1.10883 1.10644 11.9866 1.07253
5130.93 1.11423 1.11055 11.9533 1.07238
5131.35 1.11848 1.11461 11.927 1.07223
5131.77 1.12122 1.1185 11.9027 1.07209
5132.19 1.12267 1.1222 11.8892 1.07194
5132.6 1.12444 1.12572 11.8752 1.07179
5133.02 1.1279 1.12903 11.8172 1.07165
5133.44 1.1326 1.13203 11.7596 1.0715
5133.86 1.13768 1.13452 11.7137 1.07136
5134.28 1.14237 1.13629 11.6698 1.07121
5134.71 1.14597 1.13717 11.6392 1.07107
5135.13 1.1479 1.13712 11.6137 1.07093
5135.55 1.14772 1.13617 11.6159 1.07079
5135.97 1.1459 1.13445 11.6379 1.07065
5136.39 1.14367 1.13212 11.6528 1.07051
5136.81 1.14176 1.12935 11.6586 1.07037
5137.23 1.14032 1.12631 11.6623 1.07023
5137.65 1.13931 1.12315 11.6611 1.0701
5138.07 1.13841 1.11994 11.661 1.06996
5138.49 1.13715 1.11674 11.6666 1.06983
5138.91 1.13482 1.11354 11.6726 1.0697
5139.33 1.13102 1.11037 11.6976 1.06957
5139.75 1.12654 1.10729 11.7227 1.06944
5140.17 1.12242 1.10438 11.7484 1.06932
5140.59 1.11939 1.10169 11.7744 1.06919
5141.01 1.11793 1.09928 11.793 1.06907
5141.43 1.11714 1.09717 11.8091 1.06895
5141.85 1.1155 1.09538 11.8402 1.06883
5142.27 1.11275 1.09396 11.8815 1.06871
5142.69 1.10963 1.09294 11.9284 1.0686
5143.11 1.10665 1.09227 11.9818 1.06849
5143.53 1.10411 1.0918 12.0387 1.06838
5143.96 1.10203 1.09134 12.1024 1.06827
5144.38 1.10004 1.09069 12.1591 1.06816
5144.8 1.09793 1.08977 12.1823 1.06806
5145.22 1.09594 1.08868 12.205 1.06796
5145.64 1.09435 1.08758 12.2172 1.06786
5146.06 1.09331 1.08665 12.2295 1.06777
5146.48 1.09297 1.08596 12.2355 1.06767
5146.9 1.09334 1.08544 12.2408 1.06759
5147.32 1.09435 1.08497 12.2504 1.0675
5147.75 1.09514 1.08444 12.2613 1.06742
5148.17 1.09457 1.08384 12.2792 1.06734
5148.59 1.09263 1.08327 12.3012 1.06726
5149.01 1.09008 1.08279 12.3244 1.06718
5149.43 1.0878 1.08244 12.349 1.06711
5149.85 1.0867 1.0822 12.3713 1.06704
5150.27 1.08696 1.08207 12.3897 1.06698
5150.69 1.08758 1.08208 12.402 1.06692
5151.12 1.08794 1.08231 12.3932 1.06686
5151.54 1.08829 1.0829 12.3834 1.06681
5151.96 1.089 1.08396 12.3621 1.06676
5152.38 1.0904 1.08553 12.3408 1.06671
5152.8 1.09273 1.08767 12.3093 1.06667
5153.22 1.096 1.09039 12.2775 1.06663
5153.64 1.10012 1.09366 12.2252 1.0666
5154.07 1.10514 1.09745 12.1688 1.06657
5154.49 1.11113 1.10168 12.1077 1.06654
5154.91 1.11782 1.10625 12.0448 1.06652
5155.33 1.12474 1.11111 11.9799 1.0665
5155.75 1.13115 1.11624 11.9136 1.06649
5156.18 1.13616 1.12161 11.8569 1.06648
5156.6 1.13961 1.12711 11.8134 1.06647
5157.02 1.14233 1.13256 11.7712 1.06647
5157.44 1.14492 1.13764 11.7319 1.06648
5157.86 1.14747 1.14199 11.6943 1.06649
5158.29 1.14991 1.1453 11.665 1.0665
5158.71 1.15191 1.14733 11.6364 1.06652
5159.13 1.153 1.14793 11.6421 1.06654
5159.55 1.15248 1.14701 11.6477 1.06657
5159.97 1.14975 1.1445 11.682 1.0666
5160.4 1.14499 1.14036 11.7201 1.06664
5160.82 1.13871 1.13459 11.7747 1.06668
5161.24 1.13136 1.12722 11.8352 1.06673
5161.66 1.1233 1.11834 11.9113 1.06679
5162.08 1.11405 1.10807 11.9975 1.06685
5162.51 1.10254 1.09652 12.1157 1.06691
5162.93 1.08834 1.08373 12.2683 1.06698
5163.35 1.07165 1.06969 12.4372 1.06706
5163.77 1.05291 1.05437 12.6339 1.06714
5164.2 1.0329 1.03784 12.8442 1.06722
5164.62 1.0127 1.02035 13.0909 1.06732
5165.04 0.994051 1.00231 13.3419 1.06741
5165.46 0.97783 0.984222 13.5732 1.06752
5165.89 0.962113 0.966591 13.8106 1.06762
5166.31 0.944914 0.949798 14.0495 1.06773
5166.73 0.926235 0.934072 14.2947 1.06785
5167.16 0.90689 0.919534 14.5367 1.06797
5167.58 0.889472 0.906263 14.7831 1.0681
5168.0 0.876938 0.894335 14.9453 1.06823
5168.42 0.868829 0.883823 15.0732 1.06837
5168.85 0.862791 0.87479 15.1916 1.06851
5169.27 0.857353 0.867264 15.3032 1.06866
5169.69 0.851786 0.861263 15.409 1.06881
5170.12 0.845797 0.856835 15.5074 1.06896
5170.54 0.839579 0.854073 15.6012 1.06912
5170.96 0.834296 0.853115 15.6845 1.06929
5171.39 0.832582 0.854113 15.7357 1.06945
5171.81 0.836005 0.857175 15.6572 1.06963
5172.23 0.843454 0.862313 15.5745 1.0698
5172.65 0.853377 0.869413 15.4342 1.06999
5173.08 0.863949 0.878226 15.2957 1.07017
5173.5 0.873681 0.888399 15.1531 1.07036
5173.92 0.882895 0.899529 15.0121 1.07055
5174.35 0.892426 0.911246 14.8474 1.07075
5174.77 0.902998 0.923258 14.6798 1.07095
5175.19 0.915233 0.935356 14.4969 1.07116
5175.62 0.929159 0.947396 14.3096 1.07136
5176.04 0.944384 0.959202 14.1083 1.07158
5176.46 0.959403 0.970501 13.8983 1.07179
5176.89 0.971826 0.980901 13.7432 1.07201
5177.31 0.980548 0.9899 13.6529 1.07224
5177.74 0.98598 0.996983 13.583 1.07246
5178.16 0.988527 1.00174 13.555 1.07269
5178.58 0.98846 1.00391 13.5386 1.07293
5179.01 0.985947 1.00345 13.5694 1.07316
5179.43 0.980966 1.00052 13.6051 1.0734
5179.85 0.973708 0.995387 13.7025 1.07365
5180.28 0.96515 0.988468 13.801 1.07389
5180.7 0.956345 0.980303 13.8947 1.07414
5181.13 0.947969 0.971548 13.9891 1.07439
5181.55 0.940553 0.96294 14.0769 1.07465
5181.97 0.934407 0.955218 14.1638 1.07491
5182.4 0.929726 0.948995 14.2303 1.07517
5182.82 0.926494 0.94468 14.2881 1.07543
5183.25 0.924595 0.942466 14.3107 1.0757
5183.67 0.924316 0.942394 14.3076 1.07597
5184.09 0.926269 0.944405 14.2844 1.07624
5184.52 0.93097 0.948399 14.2376 1.07651
5184.94 0.938801 0.954281 14.1737 1.07679
5185.37 0.948963 0.961934 14.0763 1.07707
5185.79 0.958861 0.971231 13.9729 1.07735
5186.22 0.967316 0.982011 13.8453 1.07764
5186.64 0.976522 0.994035 13.7133 1.07792
5187.06 0.988775 1.00696 13.5241 1.07821
5187.49 1.00536 1.02031 13.3388 1.0785
5187.91 1.0265 1.03349 13.0549 1.0788
5188.34 1.04869 1.04591 12.7771 1.07909
5188.76 1.06777 1.05706 12.6031 1.07939
5189.19 1.08197 1.06659 12.4488 1.07969
5189.61 1.09052 1.07441 12.3626 1.07999
5190.04 1.09383 1.08057 12.301 1.08029
5190.46 1.09306 1.08533 12.2991 1.08059
5190.88 1.09076 1.08899 12.3347 1.0809
5191.31 1.09043 1.09188 12.3347 1.08121
5191.73 1.09312 1.09435 12.2982 1.08152
5192.16 1.09738 1.09662 12.2589 1.08183
5192.58 1.10214 1.09888 12.2149 1.08214
5193.01 1.10698 1.10125 12.1692 1.08245
5193.43 1.11183 1.10379 12.1181 1.08277
5193.86 1.11719 1.10661 12.0647 1.08308
5194.28 1.12323 1.10987 11.9953 1.0834
5194.71 1.12912 1.11371 11.9269 1.08372
5195.13 1.13411 1.11824 11.8819 1.08404
5195.56 1.13836 1.12341 11.8371 1.08436
5195.98 1.14234 1.12906 11.8025 1.08468
5196.41 1.14676 1.1349 11.7691 1.08501
5196.83 1.15227 1.14067 11.7261 1.08533
5197.26 1.15821 1.1462 11.6807 1.08565
5197.68 1.16337 1.15145 11.6411 1.08598
5198.11 1.16752 1.15638 11.6046 1.08631
5198.54 1.17105 1.16092 11.5707 1.08663
5198.96 1.17434 1.16483 11.539 1.08696
5199.39 1.17774 1.16777 11.509 1.08729
5199.81 1.18076 1.1694 11.481 1.08761
5200.24 1.18195 1.16947 11.4659 1.08794
5200.66 1.18057 1.16792 11.4777 1.08827
5201.09 1.17709 1.16485 11.4956 1.0886
5201.51 1.17206 1.16047 11.537 1.08893
5201.94 1.16587 1.15493 11.5822 1.08926
5202.36 1.1586 1.14831 11.6615 1.08959
5202.79 1.1494 1.14064 11.7416 1.08992
5203.22 1.1377 1.13194 11.846 1.09025
5203.64 1.12484 1.12232 11.9522 1.09058
5204.07 1.11252 1.11206 12.0583 1.09091
5204.49 1.10159 1.10156 12.1654 1.09124
5204.92 1.0924 1.09132 12.2696 1.09157
5205.34 1.08407 1.08184 12.3736 1.0919
5205.77 1.07521 1.07353 12.4751 1.09223
5206.2 1.06622 1.06662 12.5758 1.09256
5206.62 1.05879 1.06124 12.6479 1.09288
5207.05 1.05389 1.05743 12.6933 1.09321
5207.47 1.05183 1.05521 12.7183 1.09354
5207.9 1.05241 1.0547 12.7137 1.09386
5208.33 1.05485 1.05608 12.7084 1.09419
5208.75 1.05878 1.0595 12.7012 1.09451
5209.18 1.06459 1.065 12.6798 1.09484
5209.61 1.07247 1.07241 12.5969 1.09516
5210.03 1.08197 1.08136 12.5115 1.09548
5210.46 1.09247 1.09137 12.387 1.0958
5210.88 1.10315 1.10199 12.2644 1.09613
5211.31 1.11338 1.11291 12.1525 1.09644
5211.74 1.12337 1.12394 12.0424 1.09676
5212.16 1.13353 1.13491 11.9296 1.09708
5212.59 1.14394 1.14565 11.8176 1.09739
5213.02 1.15455 1.15594 11.7098 1.09771
5213.44 1.16518 1.16558 11.6043 1.09802
5213.87 1.17556 1.17443 11.5107 1.09833
5214.3 1.18497 1.18248 11.4241 1.09864
5214.72 1.19242 1.18983 11.3599 1.09895
5215.15 1.19806 1.1966 11.3157 1.09926
5215.58 1.20315 1.20296 11.2725 1.09956
5216.0 1.20877 1.20898 11.2306 1.09987
5216.43 1.21569 1.21469 11.1834 1.10017
5216.86 1.22377 1.22 11.1241 1.10047
5217.28 1.23136 1.22483 11.0659 1.10077
5217.71 1.23728 1.22908 11.0109 1.10106
5218.14 1.24174 1.23277 10.9582 1.10136
5218.56 1.24512 1.23592 10.9245 1.10165
5218.99 1.24777 1.2386 10.891 1.10194
5219.42 1.25005 1.24075 10.8855 1.10223
5219.85 1.25228 1.24223 10.8806 1.10251
5220.27 1.25455 1.24279 10.8642 1.1028
5220.7 1.2558 1.24217 10.8462 1.10308
5221.13 1.2546 1.24015 10.8648 1.10336
5221.55 1.25041 1.23668 10.8947 1.10364
5221.98 1.24319 1.23183 10.9582 1.10392
5222.41 1.23376 1.22579 11.0398 1.10419
5222.84 1.22347 1.21886 11.122 1.10447
5223.26 1.21326 1.2113 11.2047 1.10474
5223.69 1.20365 1.20334 11.2853 1.10501
5224.12 1.19496 1.1952 11.3629 1.10528
5224.55 1.18721 1.18713 11.4385 1.10554
5224.97 1.18026 1.17944 11.5091 1.10581
5225.4 1.17376 1.17256 11.574 1.10607
5225.83 1.16781 1.16687 11.6185 1.10633
5226.26 1.16348 1.16265 11.6584 1.10659
5226.68 1.1616 1.16004 11.6649 1.10685
5227.11 1.16194 1.15903 11.6709 1.10711
5227.54 1.16402 1.15948 11.6527 1.10736
5227.97 1.167 1.16119 11.6345 1.10761
5228.39 1.17017 1.16399 11.6013 1.10786
5228.82 1.1737 1.16771 11.5669 1.10811
5229.25 1.17799 1.17222 11.525 1.10836
5229.68 1.18311 1.1774 11.4815 1.10861
5230.11 1.18897 1.18315 11.4322 1.10885
5230.53 1.19539 1.18928 11.3806 1.10909
5230.96 1.20219 1.19559 11.3207 1.10933
5231.39 1.20907 1.20185 11.2557 1.10957
5231.82 1.21569 1.2079 11.1975 1.10981
5232.25 1.22192 1.21367 11.1457 1.11005
5232.67 1.22786 1.21926 11.0945 1.11028
5233.1 1.23362 1.22482 11.0438 1.11052
5233.53 1.23936 1.23052 10.9918 1.11075
5233.96 1.24525 1.23642 10.9364 1.11098
5234.39 1.25157 1.24249 10.8825 1.11121
5234.81 1.2582 1.24862 10.833 1.11143
5235.24 1.26414 1.25475 10.7855 1.11166
5235.67 1.26855 1.26097 10.7519 1.11188
5236.1 1.27134 1.2674 10.7186 1.11211
5236.53 1.27292 1.27416 10.7066 1.11233
5236.96 1.27507 1.28118 10.6947 1.11255
5237.38 1.27962 1.28825 10.6358 1.11276
5237.81 1.28704 1.29501 10.5721 1.11298
5238.24 1.29716 1.30115 10.514 1.1132
5238.67 1.30864 1.3065 10.4575 1.11341
5239.1 1.31946 1.31105 10.4093 1.11362
5239.53 1.32611 1.31485 10.3647 1.11383
5239.96 1.32461 1.31799 10.3722 1.11404
5240.39 1.31752 1.32051 10.4146 1.11425
5240.81 1.31228 1.32245 10.4319 1.11446
5241.24 1.31245 1.3238 10.4237 1.11466
5241.67 1.31755 1.32458 10.4014 1.11487
5242.1 1.32439 1.32478 10.3582 1.11507
5242.53 1.32654 1.32438 10.3424 1.11527
5242.96 1.32142 1.32336 10.3893 1.11547
5243.39 1.31333 1.32174 10.4348 1.11567
5243.82 1.30594 1.31955 10.4733 1.11587
5244.25 1.30017 1.31682 10.5114 1.11606
5244.67 1.29618 1.31354 10.545 1.11626
5245.1 1.29295 1.30965 10.5787 1.11645
5245.53 1.28949 1.30514 10.616 1.11664
5245.96 1.2857 1.30009 10.6534 1.11683
5246.39 1.28167 1.29467 10.688 1.11702
5246.82 1.27734 1.28911 10.7224 1.11721
5247.25 1.27263 1.2836 10.7573 1.1174
5247.68 1.26758 1.27822 10.7923 1.11759
5248.11 1.26228 1.27301 10.8329 1.11777
5248.54 1.25714 1.26801 10.8758 1.11796
5248.97 1.25273 1.26333 10.9116 1.11814
5249.4 1.24938 1.25918 10.9432 1.11832
5249.83 1.24721 1.25586 10.9682 1.1185
5250.26 1.24626 1.2536 10.9872 1.11868
5250.69 1.24643 1.25248 10.9963 1.11886
5251.12 1.24724 1.25245 10.9921 1.11903
5251.54 1.24781 1.25332 10.9833 1.11921
5251.97 1.2481 1.25487 10.9651 1.11938
5252.4 1.2494 1.25696 10.9441 1.11956
5252.83 1.25277 1.25954 10.9147 1.11973
5253.26 1.25856 1.26265 10.883 1.1199
5253.69 1.26582 1.26634 10.838 1.12007
5254.12 1.2704 1.27061 10.7962 1.12024
5254.55 1.26957 1.27533 10.8023 1.12041
5254.98 1.26725 1.28032 10.8084 1.12058
5255.41 1.26815 1.28532 10.7837 1.12074
5255.84 1.27429 1.29008 10.7579 1.12091
5256.27 1.28588 1.29434 10.6797 1.12107
5256.7 1.29707 1.29784 10.5946 1.12123
5257.13 1.30078 1.30035 10.5843 1.1214
5257.56 1.29806 1.30169 10.5955 1.12156
5257.99 1.29361 1.3017 10.6114 1.12172
5258.42 1.28996 1.3003 10.6296 1.12188
5258.85 1.28806 1.29739 10.6472 1.12204
5259.28 1.28599 1.29285 10.6644 1.12219
5259.71 1.27965 1.28658 10.715 1.12235
5260.15 1.26853 1.27846 10.7999 1.12251
5260.58 1.25566 1.26848 10.8892 1.12266
5261.01 1.24308 1.25677 10.9846 1.12281
5261.44 1.23128 1.24355 11.0841 1.12297
5261.87 1.21984 1.22914 11.1911 1.12312
5262.3 1.20694 1.21386 11.3092 1.12327
5262.73 1.19175 1.19799 11.4622 1.12342
5263.16 1.17577 1.18184 11.6155 1.12357
5263.59 1.16044 1.16574 11.7532 1.12372
5264.02 1.14627 1.15012 11.8925 1.12387
5264.45 1.13348 1.13543 12.0144 1.12401
5264.88 1.12178 1.12204 12.1382 1.12416
5265.31 1.11091 1.11018 12.2291 1.12431
5265.74 1.10129 1.09989 12.3195 1.12445
5266.17 1.09348 1.09101 12.3887 1.1246
5266.6 1.08758 1.0834 12.4551 1.12474
5267.04 1.0835 1.0769 12.5031 1.12488
5267.47 1.08099 1.07152 12.5461 1.12502
5267.9 1.07972 1.0674 12.5553 1.12516
5268.33 1.07928 1.06481 12.5494 1.1253
5268.76 1.07924 1.06409 12.5435 1.12544
5269.19 1.07981 1.06556 12.5378 1.12558
5269.62 1.0817 1.06934 12.5208 1.12572
5270.05 1.08568 1.07529 12.4933 1.12586
5270.48 1.09255 1.08299 12.4291 1.126
5270.92 1.1023 1.09194 12.317 1.12613
5271.35 1.11392 1.10171 12.2059 1.12627
5271.78 1.1265 1.11216 12.0952 1.1264
5272.21 1.13933 1.12335 11.9858 1.12654
5272.64 1.15186 1.13552 11.8773 1.12667
5273.07 1.16375 1.14875 11.7701 1.1268
5273.5 1.17518 1.16293 11.664 1.12694
5273.94 1.18745 1.17768 11.5577 1.12707
5274.37 1.20149 1.19247 11.4348 1.1272
5274.8 1.21651 1.20679 11.3139 1.12733
5275.23 1.23135 1.22031 11.1982 1.12746
5275.66 1.24495 1.23288 11.0843 1.12759
5276.09 1.25645 1.24448 10.99 1.12772
5276.52 1.26625 1.25511 10.8986 1.12785
5276.96 1.27501 1.26467 10.8352 1.12798
5277.39 1.28263 1.27302 10.7779 1.1281
5277.82 1.28869 1.28 10.734 1.12823
5278.25 1.29308 1.28559 10.6949 1.12836
5278.68 1.29585 1.28996 10.6691 1.12848
5279.12 1.2979 1.29342 10.65 1.12861
5279.55 1.30055 1.29626 10.629 1.12873
5279.98 1.30377 1.29869 10.6063 1.12885
5280.41 1.30638 1.30076 10.5891 1.12898
5280.84 1.30761 1.30242 10.5775 1.1291
5281.28 1.30716 1.30361 10.573 1.12922
5281.71 1.30565 1.30439 10.5787 1.12934
5282.14 1.30476 1.30499 10.5819 1.12946
5282.57 1.3054 1.30577 10.5799 1.12958
5283.0 1.30712 1.30719 10.5751 1.1297
5283.44 1.30959 1.30967 10.5614 1.12982
5283.87 1.31295 1.31347 10.5456 1.12993
5284.3 1.31782 1.31864 10.5183 1.13005
5284.73 1.32571 1.32498 10.486 1.13017
5285.17 1.33725 1.33214 10.3941 1.13028
5285.6 1.34964 1.3398 10.3035 1.1304
5286.03 1.35992 1.34769 10.2481 1.13051
5286.46 1.36728 1.35569 10.1932 1.13063
5286.9 1.37192 1.36384 10.1737 1.13074
5287.33 1.37644 1.37208 10.1575 1.13085
5287.76 1.38358 1.38025 10.1218 1.13096
5288.19 1.39201 1.38802 10.0826 1.13107
5288.63 1.39893 1.39494 10.0431 1.13118
5289.06 1.40316 1.40063 10.0037 1.13129
5289.49 1.40438 1.40493 9.96589 1.1314
5289.93 1.40347 1.40782 9.92894 1.13151
5290.36 1.40193 1.40943 9.9228 1.13162
5290.79 1.40023 1.40991 9.93749 1.13172
5291.22 1.398 1.40931 9.95564 1.13183
5291.66 1.39504 1.40762 9.97706 1.13193
5292.09 1.39142 1.4048 10.0011 1.13204
5292.52 1.38722 1.40082 10.0286 1.13214
5292.96 1.3826 1.39572 10.0593 1.13224
5293.39 1.37755 1.38955 10.0955 1.13235
5293.82 1.37173 1.38239 10.1366 1.13245
5294.25 1.36487 1.37432 10.1897 1.13255
5294.69 1.35683 1.3655 10.2459 1.13265
5295.12 1.34752 1.3561 10.3127 1.13275
5295.55 1.337 1.3464 10.382 1.13285
5295.99 1.32569 1.33677 10.4644 1.13294
5296.42 1.31496 1.3276 10.5463 1.13304
5296.85 1.30606 1.31928 10.6029 1.13314
5297.29 1.29941 1.31215 10.66 1.13323
5297.72 1.29511 1.30642 10.695 1.13333
5298.15 1.29291 1.30224 10.7294 1.13342
5298.59 1.29239 1.29963 10.7282 1.13352
5299.02 1.29306 1.29856 10.7228 1.13361
5299.46 1.29445 1.29897 10.7111 1.1337
5299.89 1.29679 1.3008 10.6981 1.13379
5300.32 1.30059 1.30403 10.6762 1.13388
5300.76 1.3064 1.30866 10.6513 1.13397
5301.19 1.31465 1.3147 10.6044 1.13406
5301.62 1.32414 1.32209 10.5469 1.13415
5302.06 1.33277 1.33059 10.4872 1.13424
5302.49 1.34006 1.33984 10.4261 1.13432
5302.93 1.34679 1.34944 10.3642 1.13441
5303.36 1.35396 1.35898 10.3015 1.13449
5303.79 1.36267 1.36821 10.2379 1.13458
5304.23 1.37272 1.37696 10.1732 1.13466
5304.66 1.38248 1.38519 10.1114 1.13474
5305.1 1.39109 1.39289 10.0538 1.13483
5305.53 1.39887 1.4001 9.99817 1.13491
5305.96 1.40625 1.40683 9.94624 1.13499
5306.4 1.41366 1.41309 9.89636 1.13507
5306.83 1.42111 1.41884 9.85252 1.13514
5307.27 1.42767 1.42407 9.81214 1.13522
5307.7 1.43258 1.42872 9.78965 1.1353
5308.13 1.43576 1.43272 9.76813 1.13538
5308.57 1.43733 1.43597 9.75718 1.13545
5309.0 1.4376 1.4384 9.74634 1.13553
5309.44 1.437 1.43996 9.74868 1.1356
5309.87 1.43621 1.44072 9.75103 1.13567
5310.31 1.43593 1.44081 9.74801 1.13574
5310.74 1.4364 1.44039 9.74462 1.13582
5311.18 1.43769 1.43957 9.7398 1.13589
5311.61 1.43953 1.43842 9.73475 1.13596
5312.04 1.44145 1.43698 9.7292 1.13602
5312.48 1.44222 1.43524 9.72351 1.13609
5312.91 1.44041 1.43319 9.74596 1.13616
5313.35 1.43619 1.43082 9.77939 1.13623
5313.78 1.43056 1.42811 9.81457 1.13629
5314.22 1.42452 1.42507 9.85078 1.13636
5314.65 1.41905 1.42174 9.88164 1.13642
5315.09 1.41481 1.4182 9.90864 1.13648
5315.52 1.41216 1.41455 9.92783 1.13654
5315.96 1.41079 1.41093 9.93953 1.13661
5316.39 1.40969 1.40746 9.9516 1.13667
5316.83 1.40808 1.40422 9.96413 1.13673
5317.26 1.40546 1.40126 9.97864 1.13678
5317.7 1.40195 1.39847 9.99648 1.13684
5318.13 1.39852 1.39567 10.0131 1.1369
5318.57 1.3956 1.39265 10.0269 1.13695
5319.0 1.39255 1.38915 10.043 1.13701
5319.44 1.3888 1.38504 10.0665 1.13706
5319.87 1.38405 1.38022 10.0926 1.13712
5320.31 1.37832 1.37467 10.1315 1.13717
5320.74 1.37225 1.36841 10.1711 1.13722
5321.18 1.36624 1.36142 10.2156 1.13727
5321.61 1.35982 1.35375 10.2608 1.13732
5322.05 1.35244 1.34542 10.3199 1.13737
5322.49 1.34384 1.33649 10.3795 1.13742
5322.92 1.33398 1.32703 10.4574 1.13747
5323.36 1.32328 1.31708 10.5369 1.13751
5323.79 1.31225 1.30671 10.6226 1.13756
5324.23 1.30113 1.29601 10.7098 1.1376
5324.66 1.29005 1.28508 10.7954 1.13764
5325.1 1.27926 1.27408 10.8815 1.13769
5325.53 1.26909 1.26321 10.965 1.13773
5325.97 1.26009 1.25277 11.0484 1.13777
5326.41 1.25278 1.24315 11.1101 1.13781
5326.84 1.24671 1.2348 11.1627 1.13785
5327.28 1.2409 1.22818 11.2114 1.13789
5327.71 1.23515 1.22365 11.2578 1.13792
5328.15 1.22991 1.22137 11.301 1.13796
5328.59 1.22663 1.22133 11.3417 1.13799
5329.02 1.22751 1.22335 11.3423 1.13803
5329.46 1.23244 1.22716 11.304 1.13806
5329.89 1.23903 1.23251 11.2592 1.13809
5330.33 1.24575 1.23925 11.2062 1.13813
5330.77 1.25223 1.24732 11.1483 1.13816
5331.2 1.25908 1.25669 11.0823 1.13819
5331.64 1.26816 1.26726 11.0054 1.13822
5332.07 1.28006 1.27873 10.905 1.13824
5332.51 1.29313 1.29063 10.8087 1.13827
5332.95 1.30592 1.30239 10.7219 1.1383
5333.38 1.31772 1.31351 10.6382 1.13832
5333.82 1.32822 1.32364 10.5642 1.13835
5334.26 1.33781 1.3326 10.4941 1.13838
5334.69 1.34655 1.34026 10.4452 1.1384
5335.13 1.35325 1.34655 10.3986 1.13842
5335.57 1.35687 1.35139 10.3789 1.13845
5336.0 1.35741 1.35472 10.3594 1.13847
5336.44 1.35534 1.35658 10.3661 1.13849
5336.88 1.35199 1.35707 10.3729 1.13851
5337.31 1.34872 1.35636 10.3903 1.13853
5337.75 1.34596 1.35472 10.4085 1.13855
5338.19 1.34381 1.35247 10.4193 1.13857
5338.62 1.34217 1.34991 10.4292 1.13859
5339.06 1.34079 1.34732 10.4337 1.13861
5339.5 1.33916 1.34482 10.4371 1.13863
5339.93 1.33679 1.34242 10.4531 1.13864
5340.37 1.33426 1.34007 10.4732 1.13866
5340.81 1.33262 1.33775 10.4886 1.13868
5341.24 1.33229 1.33554 10.5019 1.13869
5341.68 1.33333 1.33362 10.5106 1.13871
5342.12 1.33536 1.33223 10.5166 1.13873
5342.56 1.33772 1.33153 10.5048 1.13874
5342.99 1.33983 1.33158 10.4802 1.13876
5343.43 1.34112 1.33233 10.4656 1.13877
5343.87 1.34136 1.33361 10.4598 1.13879
5344.3 1.34055 1.3352 10.4609 1.1388
5344.74 1.33899 1.3369 10.47 1.13882
5345.18 1.33717 1.33855 10.4814 1.13883
5345.62 1.33562 1.34013 10.496 1.13884
5346.05 1.33484 1.34167 10.5047 1.13886
5346.49 1.3352 1.34329 10.5026 1.13887
5346.93 1.33692 1.34514 10.4962 1.13889
5347.37 1.3401 1.34728 10.4799 1.1389
5347.8 1.34467 1.34978 10.4589 1.13891
5348.24 1.35031 1.35268 10.4229 1.13893
5348.68 1.35616 1.35605 10.3868 1.13894
5349.12 1.36153 1.35999 10.3498 1.13895
5349.55 1.36634 1.36461 10.3129 1.13897
5349.99 1.37072 1.36998 10.2754 1.13898
5350.43 1.37513 1.3761 10.2381 1.13899
5350.87 1.38011 1.38287 10.2024 1.13901
5351.3 1.38619 1.39016 10.1667 1.13902
5351.74 1.39369 1.39782 10.1162 1.13903
5352.18 1.40222 1.40574 10.0661 1.13905
5352.62 1.41113 1.41378 10.0085 1.13906
5353.06 1.41936 1.42182 9.95107 1.13908
5353.49 1.42604 1.4297 9.91623 1.13909
5353.93 1.43202 1.43729 9.88401 1.13911
5354.37 1.43863 1.44443 9.83064 1.13912
5354.81 1.44629 1.45106 9.77384 1.13914
5355.25 1.45506 1.4571 9.70977 1.13915
5355.68 1.4645 1.46249 9.64429 1.13917
5356.12 1.47393 1.46715 9.63061 1.13919
5356.56 1.4825 1.47095 9.63525 1.1392
5357.0 1.48925 1.47381 9.62325 1.13922
5357.44 1.49332 1.47565 9.60359 1.13924
5357.88 1.49388 1.47647 9.58001 1.13925
5358.31 1.49029 1.47633 9.55419 1.13927
5358.75 1.48213 1.47526 9.583 1.13929
5359.19 1.47122 1.47333 9.65239 1.13931
5359.63 1.46109 1.47064 9.70995 1.13933
5360.07 1.45352 1.46726 9.75653 1.13935
5360.51 1.44851 1.46325 9.79586 1.13937
5360.95 1.4451 1.45863 9.82688 1.13939
5361.38 1.44134 1.45332 9.85915 1.13941
5361.82 1.43635 1.44726 9.89309 1.13944
5362.26 1.4306 1.44047 9.92816 1.13946
5362.7 1.42436 1.4331 9.96504 1.13948
5363.14 1.41751 1.42534 10.0035 1.13951
5363.58 1.40981 1.41742 10.045 1.13953
5364.02 1.40097 1.40946 10.093 1.13956
5364.46 1.39119 1.40147 10.1584 1.13958
5364.89 1.38177 1.39344 10.2215 1.13961
5365.33 1.37357 1.38537 10.2744 1.13964
5365.77 1.36643 1.37726 10.3265 1.13967
5366.21 1.3598 1.36915 10.3734 1.13969
5366.65 1.35264 1.36108 10.4235 1.13973
5367.09 1.34429 1.35307 10.496 1.13976
5367.53 1.33543 1.34525 10.5679 1.13979
5367.97 1.32696 1.33776 10.6218 1.13982
5368.41 1.31965 1.33078 10.6759 1.13985
5368.85 1.31426 1.32451 10.7123 1.13989
5369.29 1.3115 1.31915 10.7489 1.13992
5369.73 1.31166 1.3149 10.7436 1.13996
5370.16 1.31317 1.312 10.7369 1.14
5370.6 1.31428 1.31064 10.7281 1.14004
5371.04 1.31492 1.31096 10.7192 1.14007
5371.48 1.31569 1.31298 10.7061 1.14012
5371.92 1.31812 1.31659 10.6924 1.14016
5372.36 1.32367 1.3216 10.6514 1.1402
5372.8 1.33117 1.32774 10.6048 1.14024
5373.24 1.3386 1.3348 10.5587 1.14029
5373.68 1.34538 1.34257 10.513 1.14033
5374.12 1.35176 1.35088 10.4663 1.14038
5374.56 1.35872 1.35954 10.4194 1.14043
5375.0 1.36745 1.36837 10.359 1.14048
5375.44 1.37716 1.3771 10.2928 1.14053
5375.88 1.38591 1.38543 10.2381 1.14058
5376.32 1.39287 1.3931 10.19 1.14063
5376.76 1.39806 1.39987 10.1501 1.14069
5377.2 1.40207 1.40561 10.116 1.14074
5377.64 1.40596 1.41025 10.0898 1.1408
5378.08 1.40983 1.41377 10.0701 1.14086
5378.52 1.41303 1.41623 10.0572 1.14092
5378.96 1.41501 1.41775 10.0511 1.14098
5379.4 1.41541 1.41851 10.05 1.14104
5379.84 1.41389 1.41872 10.0552 1.1411
5380.28 1.41017 1.41858 10.0672 1.14117
5380.72 1.40559 1.41821 10.0891 1.14123
5381.16 1.40352 1.41768 10.0985 1.1413
5381.6 1.40561 1.41702 10.0858 1.14137
5382.04 1.41078 1.41623 10.0659 1.14144
5382.48 1.41659 1.41532 10.0307 1.14152
5382.92 1.41865 1.41429 10.015 1.14159
5383.36 1.41539 1.41309 10.0499 1.14167
5383.8 1.41058 1.41168 10.0794 1.14174
5384.24 1.4073 1.41002 10.0906 1.14182
5384.68 1.40606 1.40811 10.0984 1.1419
5385.12 1.4063 1.40598 10.0913 1.14198
5385.56 1.40568 1.40373 10.0879 1.14207
5386.01 1.40294 1.40143 10.106 1.14215
5386.45 1.40011 1.3991 10.1216 1.14224
5386.89 1.39911 1.39669 10.1154 1.14233
5387.33 1.39983 1.39405 10.1081 1.14242
5387.77 1.40136 1.39097 10.0831 1.14251
5388.21 1.4014 1.38729 10.0595 1.1426
5388.65 1.39794 1.38296 10.0964 1.1427
5389.09 1.39128 1.37806 10.1335 1.14279
5389.53 1.38229 1.37276 10.2002 1.14289
5389.97 1.37197 1.36726 10.2682 1.14299
5390.41 1.36141 1.36166 10.3625 1.14309
5390.86 1.352 1.356 10.4598 1.14319
5391.3 1.34488 1.35027 10.5159 1.14329
5391.74 1.33898 1.34448 10.5677 1.1434
5392.18 1.33274 1.33868 10.6191 1.1435
5392.62 1.32595 1.333 10.6708 1.14361
5393.06 1.31906 1.32759 10.7221 1.14371
5393.5 1.31392 1.32257 10.7736 1.14382
5393.94 1.31249 1.31802 10.7768 1.14393
5394.38 1.31327 1.31394 10.7662 1.14404
5394.83 1.3133 1.31034 10.7722 1.14415
5395.27 1.31144 1.30723 10.784 1.14426
5395.71 1.30774 1.30461 10.8123 1.14437
5396.15 1.30414 1.30253 10.8478 1.14449
5396.59 1.30343 1.30101 10.8487 1.1446
5397.03 1.3055 1.30007 10.8319 1.14471
5397.48 1.30837 1.29969 10.8166 1.14483
5397.92 1.31072 1.29979 10.8022 1.14495
5398.36 1.31182 1.30023 10.7899 1.14506
5398.8 1.31161 1.30085 10.7792 1.14518
5399.24 1.31062 1.30144 10.7823 1.1453
5399.68 1.30915 1.30189 10.7969 1.14542
5400.13 1.30737 1.30214 10.8122 1.14554
5400.57 1.30543 1.30213 10.8282 1.14565
5401.01 1.30356 1.30176 10.8444 1.14577
5401.45 1.30206 1.30081 10.8608 1.1459
5401.89 1.30137 1.29901 10.8737 1.14602
5402.33 1.30086 1.29616 10.882 1.14614
5402.78 1.29872 1.29226 10.8997 1.14626
5403.22 1.29391 1.28756 10.9315 1.14638
5403.66 1.28654 1.28249 10.9752 1.1465
5404.1 1.2782 1.2775 11.0397 1.14663
5404.55 1.27239 1.27294 11.0916 1.14675
5404.99 1.27054 1.26894 11.1165 1.14687
5405.43 1.27052 1.26557 11.1382 1.14699
5405.87 1.27043 1.26281 11.1522 1.14712
5406.31 1.2693 1.26073 11.1634 1.14724
5406.76 1.2671 1.2595 11.1666 1.14736
5407.2 1.26551 1.25931 11.1653 1.14749
5407.64 1.2659 1.26035 11.1483 1.14761
5408.08 1.26866 1.26272 11.1271 1.14773
5408.53 1.27384 1.26643 11.0879 1.14785
5408.97 1.28106 1.27144 11.0439 1.14798
5409.41 1.28943 1.27762 10.9734 1.1481
5409.85 1.29704 1.28476 10.9069 1.14822
5410.3 1.30254 1.29267 10.8653 1.14834
5410.74 1.30667 1.30109 10.8244 1.14847
5411.18 1.31051 1.30982 10.7886 1.14859
5411.63 1.31509 1.31871 10.7531 1.14871
5412.07 1.32136 1.32765 10.7198 1.14883
5412.51 1.33001 1.33657 10.6851 1.14895
5412.95 1.34127 1.3454 10.5933 1.14907
5413.4 1.35391 1.3541 10.5027 1.14919
5413.84 1.36644 1.36263 10.4182 1.14931
5414.28 1.37755 1.37095 10.3348 1.14943
5414.73 1.38625 1.37899 10.2833 1.14954
5415.17 1.39258 1.38666 10.2335 1.14966
5415.61 1.3969 1.39374 10.2127 1.14978
5416.05 1.39963 1.39999 10.1941 1.14989
5416.5 1.40123 1.40521 10.1807 1.15001
5416.94 1.40217 1.40924 10.1679 1.15012
5417.38 1.40288 1.41211 10.1522 1.15024
5417.83 1.4037 1.41398 10.136 1.15035
5418.27 1.40482 1.4151 10.1177 1.15046
5418.71 1.40614 1.41571 10.099 1.15057
5419.16 1.40738 1.416 10.0803 1.15068
5419.6 1.40831 1.41601 10.0617 1.15079
5420.04 1.40876 1.41573 10.0447 1.1509
5420.49 1.40906 1.41508 10.0281 1.15101
5420.93 1.40973 1.414 10.0123 1.15111
5421.37 1.41067 1.4125 9.99686 1.15122
5421.82 1.41148 1.41062 9.98608 1.15132
5422.26 1.41175 1.40853 9.97714 1.15143
5422.71 1.41111 1.40638 9.98201 1.15153
5423.15 1.40985 1.40435 9.99313 1.15163
5423.59 1.40858 1.40257 10.0085 1.15173
5424.04 1.40731 1.40109 10.0261 1.15183
5424.48 1.40566 1.39988 10.0477 1.15192
5424.92 1.40322 1.39876 10.0716 1.15202
5425.37 1.3996 1.39748 10.1045 1.15211
5425.81 1.39534 1.39571 10.1434 1.1522
5426.26 1.3916 1.39319 10.1763 1.15229
5426.7 1.38871 1.38979 10.2046 1.15238
5427.14 1.38628 1.38562 10.2321 1.15247
5427.59 1.38368 1.38095 10.2588 1.15256
5428.03 1.38018 1.37609 10.2945 1.15264
5428.48 1.37582 1.37126 10.3386 1.15273
5428.92 1.37141 1.36654 10.3767 1.15281
5429.36 1.36727 1.36191 10.4087 1.15289
5429.81 1.36325 1.35733 10.4376 1.15297
5430.25 1.35901 1.35279 10.4628 1.15304
5430.7 1.35411 1.34831 10.4879 1.15312
5431.14 1.34875 1.34393 10.5128 1.15319
5431.59 1.3439 1.33973 10.5363 1.15326
5432.03 1.34013 1.33596 10.5576 1.15333
5432.48 1.33748 1.33294 10.5772 1.1534
5432.92 1.33581 1.33108 10.5943 1.15346
5433.36 1.33471 1.33066 10.6038 1.15353
5433.81 1.3343 1.33174 10.6004 1.15359
5434.25 1.3355 1.33421 10.5889 1.15365
5434.7 1.33885 1.33789 10.5621 1.1537
5435.14 1.3443 1.34264 10.5295 1.15376
5435.59 1.35152 1.34842 10.4847 1.15381
5436.03 1.35979 1.35517 10.437 1.15386
5436.48 1.36846 1.36279 10.382 1.15391
5436.92 1.37701 1.37105 10.3269 1.15396
5437.37 1.38509 1.37964 10.271 1.154
5437.81 1.39259 1.3883 10.2151 1.15404
5438.26 1.3996 1.39683 10.1585 1.15408
5438.7 1.40645 1.40511 10.1002 1.15412
5439.15 1.41332 1.41305 10.0355 1.15415
5439.59 1.41993 1.42048 9.97423 1.15419
5440.04 1.42598 1.42714 9.92398 1.15422
5440.48 1.43119 1.43268 9.87668 1.15424
5440.93 1.43528 1.43676 9.84108 1.15427
5441.37 1.43798 1.43909 9.81026 1.15429
5441.82 1.43906 1.43953 9.8033 1.15431
5442.26 1.43835 1.43807 9.80062 1.15432
5442.71 1.43577 1.43487 9.82412 1.15434
5443.15 1.4314 1.43018 9.85219 1.15435
5443.6 1.42538 1.4244 9.91368 1.15436
5444.04 1.41795 1.41796 9.97569 1.15436
5444.49 1.40962 1.41129 10.0376 1.15437
5444.93 1.40177 1.4047 10.0992 1.15437
5445.38 1.39561 1.39838 10.1509 1.15437
5445.83 1.39147 1.39244 10.202 1.15436
5446.27 1.38892 1.38694 10.237 1.15436
5446.72 1.38557 1.38202 10.2727 1.15435
5447.16 1.37955 1.37784 10.3228 1.15434
5447.61 1.37217 1.37453 10.373 1.15432
5448.05 1.36536 1.37215 10.4069 1.15431
5448.5 1.36053 1.3706 10.4409 1.15429
5448.95 1.35857 1.36973 10.4389 1.15427
5449.39 1.35874 1.36936 10.4369 1.15424
5449.84 1.36003 1.36934 10.1488 1.15422
5450.28 1.36205 1.36957 9.86734 1.15419
5450.73 1.36456 1.36992 9.21807 1.15416
5451.18 1.36715 1.37022 8.61782 1.15413
5451.62 1.3692 1.3703 7.50796 1.15409
5452.07 1.36911 1.36999 6.5735 1.15405
5452.51 1.36555 1.36917 6.00624 1.15402
5452.96 1.36001 1.36784 5.52382 1.15397
5453.41 1.35482 1.36609 5.19875 1.15393
5453.85 1.35214 1.36413 4.91096 1.15389
5454.3 1.35359 1.36221 4.78712 1.15384
5454.74 1.35795 1.36062 4.68467 1.15379
5455.19 1.36318 1.35957 4.75064 1.15374
5455.64 1.36787 1.35921 4.84276 1.15368
5456.08 1.3709 1.3596 5.05205 1.15363
5456.53 1.37151 1.36068 5.29566 1.15357
5456.98 1.36928 1.36228 5.77853 1.15351
5457.42 1.36535 1.36417 6.37955 1.15345
5457.87 1.3614 1.36613 6.92138 1.15338
5458.32 1.35857 1.36807 7.49859 1.15332
5458.76 1.3577 1.36996 8.01516 1.15325
5459.21 1.35931 1.3718 8.55263 1.15318
5459.66 1.36352 1.37353 8.86144 1.15311
5460.1 1.36835 1.37496 9.11289 1.15304
5460.55 1.37116 1.37591 9.34328 1.15296
5461.0 1.3714 1.37631 9.57332 1.15288
5461.44 1.36964 1.37626 9.78059 1.15281
5461.89 1.36747 1.37598 9.98488 1.15273
5462.34 1.36675 1.37571 10.0844 1.15264
5462.78 1.36765 1.37559 10.1488 1.15256
5463.23 1.36953 1.37562 10.1849 1.15247
5463.68 1.37185 1.37575 10.2109 1.15239
5464.12 1.37417 1.37597 10.2148 1.1523
5464.57 1.37601 1.37633 10.2104 1.15221
5465.02 1.37693 1.37694 10.2125 1.15212
5465.47 1.3771 1.3779 10.2172 1.15202
5465.91 1.37704 1.37924 10.2213 1.15193
5466.36 1.3771 1.38089 10.2253 1.15183
5466.81 1.37752 1.38265 10.2289 1.15173
5467.26 1.37851 1.3842 10.2323 1.15163
5467.7 1.38014 1.38517 10.243 1.15153
5468.15 1.3815 1.38524 10.2573 1.15143
5468.6 1.38112 1.38431 10.2802 1.15132
5469.04 1.3785 1.3825 10.3077 1.15122
5469.49 1.37392 1.38012 10.3456 1.15111
5469.94 1.36913 1.37749 10.3894 1.151
5470.39 1.36669 1.37477 10.4034 1.15089
5470.83 1.36668 1.37191 10.4007 1.15078
5471.28 1.3675 1.3687 10.4043 1.15067
5471.73 1.36776 1.36496 10.4115 1.15056
5472.18 1.36636 1.3606 10.4329 1.15044
5472.63 1.36266 1.35577 10.4631 1.15032
5473.07 1.35646 1.3507 10.5006 1.15021
5473.52 1.34844 1.34565 10.5429 1.15009
5473.97 1.33993 1.34079 10.5847 1.14997
5474.42 1.33208 1.33614 10.6263 1.14985
5474.86 1.32586 1.3317 10.664 1.14972
5475.31 1.32148 1.32748 10.6991 1.1496
5475.76 1.31854 1.3236 10.7284 1.14948
5476.21 1.31663 1.32029 10.7534 1.14935
5476.66 1.31534 1.31777 10.7744 1.14922
5477.1 1.31433 1.31619 10.7925 1.1491
5477.55 1.31338 1.3155 10.8036 1.14897
5478.0 1.31274 1.31554 10.8093 1.14884
5478.45 1.3131 1.31607 10.7911 1.14871
5478.9 1.31475 1.31691 10.7541 1.14857
5479.35 1.31763 1.31805 10.7097 1.14844
5479.79 1.32155 1.31965 10.6594 1.14831
5480.24 1.3262 1.32192 10.6143 1.14817
5480.69 1.33056 1.325 10.5736 1.14804
5481.14 1.33311 1.32831 10.543 1.1479
5481.59 1.33395 1.33233 10.5209 1.14777
5482.04 1.33474 1.33677 10.5014 1.14763
5482.49 1.33763 1.34119 10.4841 1.14749
5482.93 1.34501 1.34531 10.4505 1.14735
5483.38 1.35536 1.34908 10.402 1.14721
5483.83 1.36354 1.35256 10.3718 1.14707
5484.28 1.36731 1.35574 10.3586 1.14693
5484.73 1.36735 1.35825 10.3563 1.14678
5485.18 1.36604 1.35985 10.3647 1.14664
5485.63 1.36715 1.36129 10.3571 1.1465
5486.07 1.37112 1.36298 10.3338 1.14635
5486.52 1.37515 1.3647 10.3198 1.14621
5486.97 1.37755 1.36624 10.3152 1.14606
5487.42 1.37793 1.36731 10.3188 1.14591
5487.87 1.37686 1.36726 10.3309 1.14577
5488.32 1.37575 1.36486 0.0 1.14562
5488.77 1.37527 1.36376 0.0 1.14547
5489.22 1.37533 1.36323 0.0 1.14532
5489.67 1.3758 1.36279 0.0 1.14517
5490.12 1.37658 1.36224 0.0 1.14503
5490.57 1.37751 1.36159 0.0 1.14488
5491.01 1.37832 1.36091 0.0 1.14473
5491.46 1.37921 1.36 0.0 1.14457
5491.91 1.38088 1.35831 0.0 1.14442
5492.36 1.38366 1.35511 0.0 1.14427
5492.81 1.38742 1.34995 0.0 1.14412
5493.26 1.39104 1.34293 0.0 1.14397
5493.71 1.39249 1.33421 0.0 1.14382
5494.16 1.39137 1.32352 0.0 1.14366
5494.61 1.38908 1.30992 0.0 1.14351
5495.06 1.387 1.29207 0.0 1.14336
5495.51 1.38629 1.26903 0.0 1.14321
5495.96 1.38737 1.24104 0.0 1.14305
5496.41 1.3898 1.20901 0.0 1.1429
5496.86 1.39289 1.17309 0.0 1.14274
5497.31 1.39574 1.132 0.0 1.14259
5497.76 1.39754 1.08437 0.0 1.14244
5498.21 1.39765 1.03021 0.0 1.14228
5498.66 1.39635 0.970854 0.0 1.14213
5499.11 1.3949 0.907838 0.0 1.14197
5499.56 1.39389 0.842073 0.0 1.14182
