"Wavelength (A)" Specta "Best Fitting Model" "Non-parm Extinction Curve" "Non-param Adjusted Continuum"
4051.13 0.605403 0.285905 0.0 0.927076
4051.46 0.608013 0.310222 0.0 0.926431
4051.79 0.609747 0.334899 0.0 0.925786
4052.13 0.610455 0.359568 0.0 0.925141
4052.46 0.610499 0.383527 0.0 0.924497
4052.79 0.610279 0.406165 0.0 0.923853
4053.12 0.609896 0.427316 0.0 0.923209
4053.45 0.609209 0.447184 0.0 0.922565
4053.78 0.608059 0.465812 0.0 0.921922
4054.12 0.60621 0.482915 0.0 0.921279
4054.45 0.603405 0.49821 0.0 0.920637
4054.78 0.599724 0.511612 0.0 0.919996
4055.11 0.596146 0.523148 0.0 0.919355
4055.44 0.593765 0.532872 0.0 0.918714
4055.77 0.59269 0.540879 0.0 0.918075
4056.11 0.591848 0.547392 0.0 0.917436
4056.44 0.590194 0.552771 0.0 0.916798
4056.77 0.587642 0.557336 0.0 0.916161
4057.1 0.584649 0.561179 0.0 0.915525
4057.43 0.581586 0.564153 0.0 0.91489
4057.77 0.578463 0.566058 0.0 0.914257
4058.1 0.575207 0.56687 0.0 0.913624
4058.43 0.572005 0.566821 0.0 0.912992
4058.76 0.569498 0.566274 0.0 0.912362
4059.09 0.568311 0.565572 0.0 0.911733
4059.43 0.56812 0.564994 22.6329 0.911106
4059.76 0.567845 0.56413 22.6477 0.91048
4060.09 0.566546 0.563103 22.7185 0.909855
4060.42 0.564252 0.561972 22.7977 0.909232
4060.76 0.56134 0.56072 22.8808 0.908611
4061.09 0.558313 0.559267 22.9822 0.907991
4061.42 0.555975 0.557514 23.0843 0.907373
4061.75 0.555139 0.555411 23.1445 0.906757
4062.08 0.555568 0.552995 23.1541 0.906143
4062.42 0.555849 0.550429 23.1637 0.90553
4062.75 0.55469 0.547948 23.2457 0.90492
4063.08 0.552432 0.545774 23.3526 0.904311
4063.41 0.550255 0.54412 23.4562 0.903705
4063.75 0.549082 0.543295 23.4688 0.903101
4064.08 0.548897 0.544186 23.4814 0.902499
4064.41 0.549476 0.550798 23.4742 0.901899
4064.74 0.550424 0.550955 23.4276 0.901302
4065.08 0.55109 0.551557 23.3811 0.900706
4065.41 0.550887 0.552564 23.3582 0.900114
4065.74 0.550411 0.553942 23.3493 0.899524
4066.07 0.551104 0.555645 23.3404 0.898936
4066.41 0.554038 0.557595 23.2377 0.898351
4066.74 0.558319 0.559698 23.1279 0.897768
4067.07 0.562442 0.561871 23.0268 0.897189
4067.41 0.565386 0.56406 22.9541 0.896612
4067.74 0.567169 0.566229 22.8818 0.896038
4068.07 0.567963 0.56836 22.8197 0.895466
4068.4 0.568366 0.570428 22.7672 0.894898
4068.74 0.56939 0.572399 22.7148 0.894333
4069.07 0.571868 0.574212 22.6193 0.893771
4069.4 0.575227 0.575791 22.5142 0.893211
4069.74 0.578279 0.577074 22.4161 0.892656
4070.07 0.580219 0.578037 22.3709 0.892103
4070.4 0.581366 0.578692 22.3258 0.891553
4070.73 0.582237 0.579069 22.2986 0.891007
4071.07 0.583031 0.579212 22.2974 0.890465
4071.4 0.583543 0.579163 22.2961 0.889925
4071.73 0.583555 0.578943 22.3202 0.88939
4072.07 0.583019 0.578553 22.3551 0.888858
4072.4 0.581984 0.578002 22.3901 0.888329
4072.73 0.580542 0.577308 22.4663 0.887804
4073.07 0.578938 0.576501 22.5429 0.887283
4073.4 0.577456 0.575622 22.6163 0.886766
4073.73 0.576251 0.574711 22.6818 0.886253
4074.07 0.575258 0.573797 22.7476 0.885743
4074.4 0.574392 0.572901 22.8052 0.885238
4074.73 0.573597 0.572043 22.8575 0.884736
4075.07 0.572838 0.571246 22.9099 0.884239
4075.4 0.572093 0.57056 22.9457 0.883746
4075.73 0.571408 0.570061 22.9799 0.883257
4076.07 0.570854 0.569841 23.0105 0.882772
4076.4 0.570487 0.570001 23.0268 0.882292
4076.73 0.570333 0.570642 23.0432 0.881816
4077.07 0.570418 0.571825 23.0544 0.881344
4077.4 0.570833 0.573543 23.0603 0.880877
4077.73 0.571735 0.575763 23.0663 0.880415
4078.07 0.573274 0.578419 23.0246 0.879957
4078.4 0.575517 0.581407 22.9717 0.879504
4078.74 0.5785 0.584619 22.9107 0.879055
4079.07 0.582158 0.587981 22.7825 0.878612
4079.4 0.586139 0.59145 22.6554 0.878173
4079.74 0.590049 0.594984 22.5284 0.877739
4080.07 0.593783 0.598573 22.4012 0.87731
4080.4 0.597601 0.602232 22.2751 0.876886
4080.74 0.601758 0.605981 22.117 0.876467
4081.07 0.606195 0.609812 21.9476 0.876054
4081.41 0.610677 0.613703 21.7809 0.875645
4081.74 0.614972 0.617607 21.6564 0.875242
4082.07 0.618862 0.621448 21.5329 0.874844
4082.41 0.622136 0.625134 21.4294 0.874451
4082.74 0.624779 0.628587 21.366 0.874064
4083.08 0.627083 0.631751 21.3029 0.873682
4083.41 0.629365 0.634612 21.2418 0.873306
4083.74 0.631892 0.637223 21.1819 0.872936
4084.08 0.634896 0.63966 21.1222 0.872571
4084.41 0.638515 0.64202 21.0252 0.872211
4084.75 0.642442 0.644407 20.9263 0.871858
4085.08 0.646232 0.646899 20.8361 0.87151
4085.42 0.649525 0.649503 20.7713 0.871169
4085.75 0.652124 0.652194 20.7067 0.870833
4086.08 0.653886 0.654941 20.6714 0.870503
4086.42 0.655277 0.657678 20.6596 0.870179
4086.75 0.657296 0.660336 20.6479 0.869862
4087.09 0.660743 0.662869 20.5368 0.86955
4087.42 0.665083 0.66525 20.4104 0.869245
4087.76 0.669274 0.667435 20.2937 0.868946
4088.09 0.672499 0.669381 20.2198 0.868654
4088.42 0.674499 0.671054 20.1463 0.868368
4088.76 0.675109 0.672423 20.1105 0.868088
4089.09 0.674535 0.673453 20.1157 0.867815
4089.43 0.673369 0.674116 20.1209 0.867548
4089.76 0.672183 0.674385 20.1493 0.867288
4090.1 0.671227 0.674229 20.184 0.867035
4090.43 0.670602 0.673621 20.2189 0.866788
4090.77 0.670289 0.672532 20.2554 0.866549
4091.1 0.669911 0.670947 20.292 0.866316
4091.44 0.66903 0.66887 20.3433 0.86609
4091.77 0.667392 0.666318 20.416 0.865871
4092.11 0.664983 0.663319 20.4892 0.865659
4092.44 0.661807 0.659911 20.5919 0.865454
4092.78 0.657924 0.656136 20.7068 0.865256
4093.11 0.653426 0.652032 20.8241 0.865066
4093.45 0.648411 0.647633 20.9837 0.864883
4093.78 0.643 0.642965 21.1453 0.864707
4094.12 0.637317 0.638042 21.3299 0.864539
4094.45 0.631545 0.632874 21.5578 0.864377
4094.79 0.625949 0.627471 21.7894 0.864224
4095.12 0.620768 0.621851 21.9891 0.864077
4095.46 0.615833 0.616057 22.1728 0.863938
4095.79 0.610704 0.610139 22.3589 0.863805
4096.13 0.605054 0.604149 22.5379 0.86368
4096.46 0.599062 0.598145 22.7188 0.863561
4096.8 0.593045 0.592178 22.9046 0.863449
4097.13 0.587242 0.586294 23.0997 0.863344
4097.47 0.581755 0.580537 23.2974 0.863245
4097.8 0.57665 0.574963 23.5133 0.863153
4098.14 0.571639 0.569632 23.7428 0.863067
4098.47 0.566169 0.5646 23.9757 0.862987
4098.81 0.559852 0.559921 24.2637 0.862914
4099.14 0.553201 0.55564 24.5616 0.862846
4099.48 0.547018 0.551798 24.8359 0.862785
4099.81 0.542072 0.54842 25.0179 0.862729
4100.15 0.539068 0.545535 25.202 0.862679
4100.48 0.538634 0.543178 25.2303 0.862635
4100.82 0.540115 0.541383 25.1311 0.862596
4101.16 0.541732 0.540176 25.0325 0.862562
4101.49 0.541976 0.53957 25.0346 0.862534
4101.83 0.541157 0.539569 25.0519 0.862512
4102.16 0.540257 0.540149 25.0611 0.862494
4102.5 0.540033 0.541278 25.0346 0.862481
4102.83 0.540719 0.542926 25.0083 0.862474
4103.17 0.542461 0.545061 24.9569 0.862471
4103.51 0.545143 0.547649 24.8812 0.862473
4103.84 0.548381 0.55066 24.8059 0.86248
4104.18 0.551822 0.554058 24.6952 0.862491
4104.51 0.555348 0.557786 24.5777 0.862507
4104.85 0.558948 0.561763 24.4545 0.862527
4105.18 0.56263 0.565915 24.2939 0.862551
4105.52 0.566458 0.570166 24.1349 0.86258
4105.86 0.570503 0.574428 23.9701 0.862613
4106.19 0.574753 0.578608 23.7985 0.862649
4106.53 0.5791 0.58262 23.6289 0.86269
4106.86 0.583431 0.586391 23.4876 0.862734
4107.2 0.587615 0.589839 23.3549 0.862782
4107.54 0.591514 0.592906 23.2273 0.862834
4107.87 0.595052 0.595572 23.1341 0.862889
4108.21 0.59834 0.597865 23.0415 0.862947
4108.54 0.601513 0.599824 22.936 0.863009
4108.88 0.60445 0.6015 22.8135 0.863074
4109.22 0.606719 0.602957 22.6919 0.863142
4109.55 0.607949 0.604259 22.6396 0.863213
4109.89 0.608437 0.605456 22.6098 0.863287
4110.23 0.608826 0.606593 22.58 0.863363
4110.56 0.609644 0.607717 22.5492 0.863443
4110.9 0.611061 0.608868 22.5186 0.863525
4111.23 0.613162 0.610081 22.4819 0.863609
4111.57 0.615726 0.611368 22.4363 0.863696
4111.91 0.618123 0.612725 22.3908 0.863785
4112.24 0.619755 0.614125 22.3917 0.863877
4112.58 0.620556 0.615523 22.4101 0.86397
4112.92 0.620755 0.616867 22.4288 0.864066
4113.25 0.62058 0.618125 22.451 0.864163
4113.59 0.620254 0.619295 22.4732 0.864263
4113.93 0.619999 0.620388 22.4649 0.864364
4114.26 0.62015 0.621436 22.4061 0.864466
4114.6 0.621198 0.622475 22.3475 0.86457
4114.94 0.623537 0.623525 22.2922 0.864676
4115.27 0.62646 0.624565 22.2384 0.864783
4115.61 0.628618 0.625544 22.19 0.864891
4115.95 0.629103 0.62639 22.315 0.865
4116.28 0.628653 0.627016 22.4411 0.865111
4116.62 0.628376 0.627346 22.5327 0.865222
4116.96 0.62879 0.627355 22.5608 0.865334
4117.29 0.629559 0.627072 22.5889 0.865447
4117.63 0.630277 0.626568 22.5619 0.86556
4117.97 0.630538 0.62593 22.5097 0.865674
4118.3 0.629929 0.62524 22.4585 0.865789
4118.64 0.628263 0.624551 22.4589 0.865904
4118.98 0.626202 0.623882 22.4594 0.866019
4119.32 0.624604 0.623236 22.4795 0.866134
4119.65 0.62375 0.622621 22.5374 0.866249
4119.99 0.623051 0.622063 22.5956 0.866364
4120.33 0.621901 0.621595 22.653 0.866479
4120.66 0.620351 0.621259 22.7103 0.866594
4121.0 0.618864 0.621069 22.7675 0.866708
4121.34 0.617815 0.62102 22.7748 0.866822
4121.68 0.617198 0.621091 22.7821 0.866936
4122.01 0.616914 0.621258 22.7733 0.867049
4122.35 0.616977 0.621491 22.7326 0.867161
4122.69 0.617581 0.621773 22.6921 0.867272
4123.02 0.618892 0.62209 22.6385 0.867382
4123.36 0.620582 0.622418 22.5786 0.867492
4123.7 0.622002 0.622719 22.5189 0.8676
4124.04 0.622656 0.622954 22.5195 0.867707
4124.37 0.622682 0.623087 22.5202 0.867812
4124.71 0.622373 0.623092 22.5339 0.867917
4125.05 0.622025 0.622948 22.5739 0.868019
4125.39 0.621932 0.622644 22.6139 0.86812
4125.72 0.62233 0.62216 22.6446 0.86822
4126.06 0.622769 0.621455 22.6706 0.868317
4126.4 0.622354 0.620466 22.6966 0.868413
4126.74 0.620449 0.619125 22.773 0.868506
4127.07 0.617501 0.617372 22.8499 0.868598
4127.41 0.614222 0.615175 22.9485 0.868687
4127.75 0.611061 0.612548 23.0908 0.868774
4128.09 0.60806 0.609565 23.2344 0.868859
4128.43 0.605229 0.606337 23.3454 0.868941
4128.76 0.602674 0.602981 23.4403 0.86902
4129.1 0.600562 0.599595 23.5355 0.869097
4129.44 0.598953 0.596252 23.5808 0.869171
4129.78 0.597482 0.592986 23.6262 0.869242
4130.11 0.595686 0.589808 23.6768 0.86931
4130.45 0.593446 0.586746 23.7374 0.869375
4130.79 0.591168 0.583852 23.7982 0.869437
4131.13 0.589271 0.581189 23.8524 0.869495
4131.47 0.587844 0.578847 23.9035 0.86955
4131.8 0.586768 0.576922 23.9546 0.869602
4132.14 0.585872 0.575477 23.9956 0.86965
4132.48 0.584792 0.574545 24.0368 0.869695
4132.82 0.583131 0.574148 24.0895 0.869735
4133.16 0.581179 0.574289 24.1638 0.869772
4133.5 0.580232 0.574943 24.2384 0.869805
4133.83 0.581493 0.576075 24.2064 0.869833
4134.17 0.584283 0.577652 24.127 0.869858
4134.51 0.586782 0.579626 24.0511 0.869878
4134.85 0.587722 0.581943 24.0784 0.869894
4135.19 0.587913 0.584558 24.1057 0.869905
4135.53 0.588626 0.587426 24.0848 0.869912
4135.86 0.59058 0.590496 23.982 0.869914
4136.2 0.593715 0.593691 23.88 0.869911
4136.54 0.59786 0.596907 23.7471 0.869904
4136.88 0.602307 0.600013 23.6026 0.869892
4137.22 0.606045 0.602868 23.4646 0.869874
4137.56 0.608324 0.605333 23.4239 0.869851
4137.89 0.609315 0.607272 23.3833 0.869824
4138.23 0.609384 0.60858 23.3705 0.869791
4138.57 0.608984 0.609193 23.4006 0.869753
4138.91 0.608674 0.60909 23.4309 0.86971
4139.25 0.608918 0.60827 23.4408 0.869662
4139.59 0.609205 0.606773 23.4434 0.86961
4139.93 0.608501 0.604673 23.4554 0.869553
4140.26 0.606119 0.602063 23.5799 0.869491
4140.6 0.602484 0.599033 23.7054 0.869425
4140.94 0.598246 0.595679 23.84 0.869355
4141.28 0.594003 0.592096 23.9872 0.86928
4141.62 0.590297 0.588378 24.1357 0.869201
4141.96 0.587578 0.584619 24.2368 0.869118
4142.3 0.585562 0.580914 24.3235 0.869032
4142.64 0.583601 0.57736 24.4141 0.868941
4142.98 0.581216 0.574051 24.5346 0.868846
4143.31 0.578413 0.571058 24.656 0.868748
4143.65 0.575297 0.568421 24.7692 0.868646
4143.99 0.572158 0.566159 24.872 0.86854
4144.33 0.569495 0.564274 24.9754 0.868431
4144.67 0.56775 0.562761 25.0246 0.868319
4145.01 0.566833 0.561639 25.06 0.868204
4145.35 0.566416 0.560942 25.0904 0.868085
4145.69 0.566136 0.560691 25.0904 0.867963
4146.03 0.565536 0.560878 25.0904 0.867838
4146.37 0.564184 0.561472 25.1211 0.867711
4146.71 0.562507 0.562407 25.1837 0.86758
4147.05 0.561817 0.563584 25.2466 0.867447
4147.38 0.563148 0.564899 25.2262 0.867312
4147.72 0.565465 0.566268 25.1898 0.867173
4148.06 0.566905 0.567618 25.1622 0.867033
4148.4 0.566503 0.568881 25.1726 0.866889
4148.74 0.565378 0.569983 25.183 0.866744
4149.08 0.564896 0.570858 25.1846 0.866597
4149.42 0.565369 0.571454 25.1786 0.866447
4149.76 0.566151 0.571747 25.1727 0.866296
4150.1 0.56662 0.571735 25.2047 0.866142
4150.44 0.566476 0.57145 25.2418 0.865987
4150.78 0.56554 0.570946 25.2856 0.86583
4151.12 0.563856 0.570268 25.3516 0.865672
4151.46 0.561931 0.569446 25.4178 0.865512
4151.8 0.560314 0.56851 25.4634 0.865351
4152.14 0.559357 0.567507 25.4941 0.865188
4152.48 0.559249 0.566513 25.5249 0.865024
4152.82 0.560139 0.565622 25.4769 0.864859
4153.16 0.561994 0.564929 25.4236 0.864693
4153.5 0.564718 0.564507 25.3611 0.864526
4153.84 0.567564 0.564383 25.2757 0.864358
4154.18 0.568644 0.564518 25.1908 0.864189
4154.52 0.566194 0.56485 25.2622 0.86402
4154.86 0.561597 0.565331 25.4238 0.86385
4155.2 0.558434 0.565948 25.5869 0.863679
4155.54 0.559372 0.566721 25.4816 0.863508
4155.88 0.563115 0.567713 25.3743 0.863337
4156.22 0.567364 0.568999 25.2812 0.863166
4156.56 0.570708 0.570633 25.2145 0.862994
4156.9 0.573086 0.572654 25.148 0.862823
4157.24 0.574591 0.575081 25.0988 0.862651
4157.58 0.575779 0.577897 25.0572 0.86248
4157.92 0.577483 0.581056 25.0134 0.862308
4158.26 0.580229 0.5845 24.9263 0.862138
4158.6 0.583467 0.588139 24.8397 0.861967
4158.94 0.586426 0.59187 24.7516 0.861797
4159.28 0.588816 0.595598 24.6612 0.861628
4159.62 0.590958 0.599257 24.5713 0.861459
4159.96 0.593192 0.60279 24.5039 0.861291
4160.3 0.595658 0.606157 24.4437 0.861124
4160.64 0.5984 0.609324 24.3841 0.860958
4160.98 0.60134 0.612244 24.328 0.860794
4161.32 0.604059 0.614846 24.2721 0.86063
4161.66 0.606102 0.61705 24.1951 0.860467
4162.0 0.607637 0.618789 24.0949 0.860306
4162.34 0.609497 0.620028 23.9953 0.860146
4162.68 0.612357 0.620771 23.8901 0.859988
4163.02 0.615573 0.621066 23.7844 0.859832
4163.36 0.617957 0.620998 23.7026 0.859677
4163.7 0.618648 0.620648 23.7216 0.859524
4164.05 0.617535 0.620059 23.7406 0.859372
4164.39 0.614653 0.619246 23.8184 0.859223
4164.73 0.610725 0.618205 23.9458 0.859076
4165.07 0.607085 0.616917 24.0743 0.858931
4165.41 0.604819 0.615365 24.1653 0.858788
4165.75 0.603566 0.613554 24.2529 0.858648
4166.09 0.602486 0.61151 24.3415 0.85851
4166.43 0.601089 0.609273 24.4323 0.858375
4166.77 0.599539 0.606884 24.5236 0.858242
4167.11 0.598061 0.60438 24.6034 0.858112
4167.45 0.596645 0.601788 24.6763 0.857985
4167.79 0.595119 0.599136 24.7495 0.85786
4168.14 0.593313 0.596449 24.8451 0.857739
4168.48 0.591091 0.593733 24.9417 0.857621
4168.82 0.588325 0.590985 25.0545 0.857505
4169.16 0.58502 0.588215 25.1981 0.857394
4169.5 0.581383 0.585436 25.3429 0.857285
4169.84 0.577646 0.582664 25.4798 0.85718
4170.18 0.574179 0.579916 25.6139 0.857079
4170.52 0.571423 0.577214 25.7457 0.856981
4170.86 0.56967 0.574574 25.8323 0.856887
4171.21 0.568697 0.571996 25.9194 0.856797
4171.55 0.568173 0.569466 26.0046 0.85671
4171.89 0.567492 0.566978 26.0872 0.856628
4172.23 0.565722 0.564543 26.1702 0.85655
4172.57 0.56214 0.562183 26.3501 0.856476
4172.91 0.557729 0.559929 26.5571 0.856406
4173.25 0.554252 0.55783 26.7342 0.85634
4173.6 0.552755 0.555949 26.7391 0.856279
4173.94 0.552478 0.554347 26.744 0.856223
4174.28 0.552412 0.553074 26.7572 0.856171
4174.62 0.552131 0.552163 26.7781 0.856124
4174.96 0.551761 0.55162 26.7989 0.856082
4175.3 0.551451 0.551422 26.8106 0.856045
4175.64 0.55135 0.551527 26.8211 0.856013
4175.99 0.55161 0.55187 26.8266 0.855986
4176.33 0.552218 0.552395 26.8171 0.855964
4176.67 0.552851 0.553071 26.8075 0.855947
4177.01 0.553175 0.553879 26.7939 0.855936
4177.35 0.553164 0.554809 26.7778 0.85593
4177.7 0.553022 0.555868 26.7616 0.85593
4178.04 0.553085 0.557071 26.7311 0.855935
4178.38 0.554226 0.558405 26.7004 0.855947
4178.72 0.557429 0.559838 26.6156 0.855964
4179.06 0.562288 0.561337 26.433 0.855987
4179.4 0.566352 0.562866 26.2523 0.856016
4179.75 0.567338 0.564386 26.2247 0.856051
4180.09 0.566165 0.565884 26.256 0.856092
4180.43 0.565536 0.567377 26.28 0.85614
4180.77 0.56729 0.568881 26.2292 0.856194
4181.11 0.570561 0.570403 26.1786 0.856254
4181.46 0.573986 0.57194 26.1174 0.856322
4181.8 0.576879 0.57347 26.0437 0.856395
4182.14 0.579311 0.574941 25.9703 0.856475
4182.48 0.581415 0.576312 25.873 0.856562
4182.83 0.583507 0.577572 25.7711 0.856655
4183.17 0.585971 0.578733 25.6705 0.856754
4183.51 0.588876 0.57981 25.573 0.85686
4183.85 0.591571 0.580817 25.476 0.856972
4184.19 0.593334 0.581748 25.429 0.857089
4184.54 0.593867 0.58258 25.4198 0.857213
4184.88 0.593226 0.583289 25.4106 0.857343
4185.22 0.591598 0.583864 25.502 0.857478
4185.56 0.589715 0.58432 25.6003 0.85762
4185.91 0.588474 0.584699 25.6752 0.857767
4186.25 0.588332 0.585066 25.6971 0.85792
4186.59 0.589031 0.585483 25.7191 0.858078
4186.93 0.590263 0.586006 25.6946 0.858242
4187.28 0.591913 0.586676 25.6487 0.858411
4187.62 0.593985 0.587506 25.5999 0.858585
4187.96 0.59641 0.588494 25.501 0.858765
4188.3 0.59887 0.58961 25.4028 0.85895
4188.65 0.600999 0.590818 25.3298 0.85914
4188.99 0.602527 0.592068 25.2898 0.859336
4189.33 0.603307 0.593319 25.2499 0.859536
4189.68 0.603246 0.594541 25.2743 0.859741
4190.02 0.602636 0.595727 25.3143 0.859951
4190.36 0.601931 0.596885 25.3461 0.860166
4190.7 0.601525 0.598012 25.3401 0.860385
4191.05 0.601652 0.599081 25.3341 0.860609
4191.39 0.602505 0.600048 25.2931 0.860838
4191.73 0.603934 0.60084 25.2241 0.861071
4192.08 0.605487 0.601372 25.1554 0.861308
4192.42 0.606725 0.601569 25.1369 0.86155
4192.76 0.6073 0.601381 25.1222 0.861796
4193.1 0.606904 0.600775 25.1336 0.862046
4193.45 0.605485 0.599737 25.2043 0.862301
4193.79 0.603431 0.598271 25.2753 0.862559
4194.13 0.601136 0.596396 25.373 0.862821
4194.48 0.598659 0.594143 25.4836 0.863088
4194.82 0.595846 0.591568 25.5972 0.863358
4195.16 0.59263 0.588731 25.7482 0.863632
4195.51 0.589242 0.585694 25.9004 0.863909
4195.85 0.585979 0.582515 26.0562 0.86419
4196.19 0.58325 0.579252 26.2161 0.864475
4196.54 0.581598 0.575952 26.3774 0.864763
4196.88 0.581343 0.572684 26.455 0.865055
4197.22 0.581212 0.569533 26.5137 0.86535
4197.57 0.57925 0.566598 26.6059 0.865648
4197.91 0.574669 0.563974 26.8367 0.865949
4198.25 0.569309 0.561724 27.0705 0.866253
4198.6 0.56528 0.559863 27.2274 0.866561
4198.94 0.563123 0.558373 27.3265 0.866871
4199.28 0.562093 0.557219 27.4261 0.867184
4199.63 0.561524 0.556377 27.4698 0.8675
4199.97 0.561298 0.55588 27.5109 0.867819
4200.32 0.56145 0.555827 27.5268 0.86814
4200.66 0.562054 0.556348 27.4927 0.868464
4201.0 0.563236 0.55757 27.4587 0.868791
4201.35 0.565103 0.559587 27.367 0.86912
4201.69 0.567559 0.56241 27.2531 0.869451
4202.03 0.570389 0.565941 27.1359 0.869785
4202.38 0.573412 0.570042 26.9833 0.870121
4202.72 0.576545 0.574543 26.832 0.870459
4203.07 0.579725 0.579283 26.706 0.870799
4203.41 0.582932 0.584141 26.6066 0.871141
4203.75 0.586188 0.589059 26.5077 0.871485
4204.1 0.589606 0.594008 26.3224 0.871831
4204.44 0.593834 0.598977 26.1257 0.872178
4204.79 0.599714 0.603976 25.9105 0.872528
4205.13 0.607224 0.609003 25.6364 0.872879
4205.47 0.614663 0.614021 25.3666 0.873231
4205.82 0.620242 0.618972 25.2047 0.873585
4206.16 0.623623 0.623785 25.104 0.873941
4206.51 0.625484 0.62836 25.0046 0.874298
4206.85 0.626559 0.632597 24.9425 0.874656
4207.19 0.627703 0.636428 24.8806 0.875015
4207.54 0.629783 0.639812 24.7971 0.875376
4207.88 0.633005 0.642725 24.6819 0.875737
4208.23 0.636724 0.64517 24.5674 0.8761
4208.57 0.640271 0.647164 24.463 0.876463
4208.92 0.643243 0.648714 24.3616 0.876828
4209.26 0.645356 0.649822 24.2811 0.877193
4209.6 0.64636 0.650484 24.2963 0.877559
4209.95 0.646079 0.650689 24.3115 0.877925
4210.29 0.644394 0.650427 24.3571 0.878292
4210.64 0.641966 0.649717 24.4265 0.878659
4210.98 0.640119 0.648616 24.4962 0.879027
4211.33 0.639805 0.64722 24.4899 0.879395
4211.67 0.640148 0.645663 24.4795 0.879764
4212.02 0.639748 0.644102 24.4922 0.880133
4212.36 0.637894 0.642666 24.5503 0.880501
4212.71 0.634927 0.641433 24.6087 0.88087
4213.05 0.631315 0.640436 24.6837 0.881239
4213.4 0.627885 0.639661 24.7654 0.881608
4213.74 0.625659 0.639071 24.8373 0.881976
4214.08 0.625289 0.638654 24.8309 0.882344
4214.43 0.626361 0.638442 24.8246 0.882712
4214.77 0.628289 0.638503 24.7626 0.88308
4215.12 0.630733 0.638913 24.6468 0.883447
4215.46 0.633604 0.639738 24.5318 0.883813
4215.81 0.636763 0.641008 24.4644 0.884179
4216.15 0.639772 0.64269 24.4027 0.884545
4216.5 0.64209 0.644696 24.3483 0.884909
4216.84 0.643556 0.646919 24.3116 0.885273
4217.19 0.644676 0.649251 24.275 0.885636
4217.53 0.646002 0.651588 24.2154 0.885997
4217.88 0.647843 0.65385 24.145 0.886358
4218.22 0.65036 0.655984 24.074 0.886718
4218.57 0.653574 0.657925 23.9901 0.887076
4218.91 0.657066 0.65957 23.9067 0.887433
4219.26 0.66033 0.660783 23.8448 0.887789
4219.6 0.66289 0.661388 23.8076 0.888144
4219.95 0.664306 0.6612 23.7705 0.888497
4220.3 0.664206 0.660061 23.8236 0.888848
4220.64 0.662617 0.65787 23.8922 0.889198
4220.99 0.659719 0.654578 23.9884 0.889546
4221.33 0.655541 0.650188 24.1687 0.889892
4221.68 0.649817 0.644746 24.351 0.890236
4222.02 0.642326 0.638316 24.646 0.890579
4222.37 0.633821 0.630978 25.0092 0.89092
4222.71 0.625728 0.622857 25.3763 0.891258
4223.06 0.618975 0.614123 25.6436 0.891594
4223.4 0.612672 0.604983 25.9151 0.891929
4223.75 0.605543 0.595679 26.2291 0.89226
4224.1 0.597022 0.58647 26.5996 0.89259
4224.44 0.587393 0.577596 26.9781 0.892917
4224.79 0.577063 0.56927 27.3834 0.893242
4225.13 0.566964 0.561692 27.8019 0.893564
4225.48 0.558237 0.555034 28.1961 0.893883
4225.82 0.551645 0.549434 28.4795 0.8942
4226.17 0.547163 0.545004 28.7672 0.894513
4226.52 0.544649 0.54182 28.9016 0.894825
4226.86 0.543734 0.539906 28.9413 0.895133
4227.21 0.543886 0.539235 28.9795 0.895439
4227.55 0.544565 0.539762 28.9408 0.895742
4227.9 0.545217 0.541444 28.9021 0.896042
4228.24 0.545315 0.54424 28.8605 0.89634
4228.59 0.545429 0.548109 28.8148 0.896635
4228.94 0.547487 0.553006 28.7693 0.896927
4229.28 0.553109 0.558863 28.4941 0.897216
4229.63 0.561168 0.565539 28.1723 0.897503
4229.97 0.569366 0.572802 27.8564 0.897787
4230.32 0.576238 0.580387 27.5473 0.898068
4230.67 0.582108 0.588013 27.2433 0.898347
4231.01 0.587563 0.595397 26.9336 0.898623
4231.36 0.593631 0.602317 26.6224 0.898897
4231.71 0.601665 0.608641 26.3147 0.899167
4232.05 0.6122 0.614309 25.8935 0.899435
4232.4 0.622617 0.619306 25.4823 0.899701
4232.74 0.629617 0.623654 25.2258 0.899964
4233.09 0.632496 0.627382 25.1754 0.900224
4233.44 0.633784 0.630512 25.1251 0.900481
4233.78 0.635887 0.633065 25.0589 0.900736
4234.13 0.63893 0.635071 24.9893 0.900988
4234.48 0.642067 0.636571 24.9282 0.901238
4234.82 0.644677 0.637647 24.8962 0.901485
4235.17 0.646613 0.63842 24.8641 0.901729
4235.52 0.647805 0.639039 24.8549 0.901971
4235.86 0.648388 0.639657 24.8595 0.90221
4236.21 0.648643 0.64043 24.8646 0.902446
4236.56 0.648804 0.641471 24.8905 0.90268
4236.9 0.648927 0.642834 24.9164 0.902911
4237.25 0.649018 0.644524 24.941 0.90314
4237.6 0.64906 0.646515 24.964 0.903366
4237.94 0.648997 0.648767 24.9871 0.90359
4238.29 0.648872 0.651259 24.9786 0.903811
4238.64 0.649421 0.65401 24.9638 0.904029
4238.98 0.65165 0.657068 24.9048 0.904245
4239.33 0.655893 0.660492 24.7059 0.904458
4239.68 0.661127 0.664332 24.5093 0.904669
4240.02 0.66622 0.668617 24.3461 0.904877
4240.37 0.670763 0.673314 24.2017 0.905082
4240.72 0.674842 0.678349 24.0599 0.905285
4241.06 0.678579 0.683615 23.9449 0.905486
4241.41 0.68219 0.688995 23.8307 0.905684
4241.76 0.685905 0.694337 23.7182 0.905879
4242.11 0.689824 0.699495 23.6075 0.906072
4242.45 0.693893 0.704329 23.4976 0.906262
4242.8 0.698027 0.708714 23.3751 0.90645
4243.15 0.701978 0.71253 23.2515 0.906635
4243.49 0.705438 0.715687 23.1283 0.906818
4243.84 0.708152 0.718117 23.0046 0.906998
4244.19 0.709969 0.719759 22.8818 0.907176
4244.54 0.710773 0.720546 22.8361 0.907351
4244.88 0.710742 0.720439 22.8267 0.907524
4245.23 0.710234 0.719438 22.8203 0.907694
4245.58 0.709588 0.717591 22.845 0.907862
4245.92 0.709075 0.715012 22.8697 0.908027
4246.27 0.708927 0.711872 22.8897 0.90819
4246.62 0.708837 0.708336 22.9048 0.90835
4246.97 0.707949 0.704523 22.9199 0.908508
4247.31 0.705508 0.700488 23.0356 0.908663
4247.66 0.701419 0.696221 23.1629 0.908816
4248.01 0.695813 0.691656 23.3223 0.908967
4248.36 0.689085 0.686744 23.5519 0.909115
4248.7 0.682064 0.681512 23.7849 0.90926
4249.05 0.675564 0.676081 24.0177 0.909404
4249.4 0.669888 0.670631 24.2526 0.909544
4249.75 0.66506 0.665369 24.4803 0.909683
4250.1 0.660996 0.660483 24.6439 0.909818
4250.44 0.657338 0.656095 24.8091 0.909952
4250.79 0.653703 0.65224 24.9681 0.910083
4251.14 0.650023 0.648908 25.1222 0.910211
4251.49 0.64651 0.64608 25.2777 0.910338
4251.83 0.643401 0.643749 25.3445 0.910461
4252.18 0.640999 0.641921 25.408 0.910583
4252.53 0.639618 0.64062 25.447 0.910702
4252.88 0.639329 0.63987 25.4447 0.910818
4253.23 0.639858 0.639666 25.4424 0.910932
4253.57 0.640906 0.639964 25.4177 0.911044
4253.92 0.642141 0.64068 25.3869 0.911154
4254.27 0.643219 0.641686 25.3549 0.911261
4254.62 0.643946 0.642831 25.3175 0.911365
4254.97 0.644459 0.643973 25.2802 0.911467
4255.31 0.644944 0.644996 25.2336 0.911567
4255.66 0.645652 0.645832 25.1813 0.911665
4256.01 0.646883 0.646491 25.1289 0.91176
4256.36 0.648716 0.647066 25.0679 0.911853
4256.71 0.650428 0.647687 25.0072 0.911944
4257.06 0.651144 0.648471 24.9795 0.912032
4257.4 0.65097 0.649491 24.9924 0.912118
4257.75 0.651139 0.650761 25.0053 0.912201
4258.1 0.652765 0.652206 24.9042 0.912282
4258.45 0.655847 0.653721 24.7858 0.912361
4258.8 0.659968 0.655243 24.6666 0.912438
4259.15 0.664517 0.656782 24.5441 0.912512
4259.49 0.668532 0.658402 24.4224 0.912584
4259.84 0.671101 0.660215 24.3683 0.912653
4260.19 0.672174 0.662347 24.3433 0.912721
4260.54 0.672212 0.6649 24.3233 0.912786
4260.89 0.671941 0.667915 24.341 0.912849
4261.24 0.672809 0.671383 24.3587 0.912909
4261.59 0.676306 0.675244 24.2691 0.912967
4261.93 0.682163 0.679414 24.0874 0.913023
4262.28 0.688506 0.683781 23.9077 0.913077
4262.63 0.693735 0.688226 23.7964 0.913128
4262.98 0.697804 0.692639 23.6892 0.913177
4263.33 0.701115 0.696943 23.5899 0.913224
4263.68 0.70401 0.70106 23.5036 0.913268
4264.03 0.706752 0.704899 23.4176 0.913311
4264.38 0.709542 0.708373 23.3463 0.913351
4264.73 0.712143 0.711385 23.2789 0.913389
4265.07 0.714121 0.71378 23.2244 0.913424
4265.42 0.715112 0.715375 23.2162 0.913458
4265.77 0.714907 0.716009 23.2081 0.913489
4266.12 0.71336 0.715528 23.2625 0.913518
4266.47 0.710878 0.713801 23.3533 0.913544
4266.82 0.708252 0.710781 23.4446 0.913569
4267.17 0.705951 0.706527 23.5345 0.913591
4267.52 0.703313 0.701154 23.6248 0.913611
4267.87 0.699451 0.694845 23.7838 0.913629
4268.22 0.693876 0.687811 24.0197 0.913645
4268.57 0.686519 0.68024 24.2592 0.913658
4268.91 0.677488 0.672255 24.5702 0.913669
4269.26 0.667736 0.663956 24.8948 0.913678
4269.61 0.658492 0.655429 25.2109 0.913685
4269.96 0.650416 0.646796 25.5012 0.91369
4270.31 0.643272 0.638233 25.7965 0.913693
4270.66 0.636718 0.629949 26.0504 0.913693
4271.01 0.630222 0.622162 26.2922 0.913691
4271.36 0.623155 0.615076 26.5344 0.913687
4271.71 0.615415 0.608843 26.7657 0.913681
4272.06 0.608173 0.603541 27.0001 0.913673
4272.41 0.602723 0.599225 27.1869 0.913663
4272.76 0.599339 0.595938 27.3414 0.913651
4273.11 0.597502 0.593722 27.4945 0.913637
4273.46 0.596743 0.592636 27.5359 0.91362
4273.81 0.596841 0.592741 27.5774 0.913602
4274.16 0.597642 0.594083 27.5635 0.913582
4274.51 0.599165 0.596664 27.4818 0.91356
4274.86 0.601624 0.600411 27.4004 0.913536
4275.21 0.605186 0.605158 27.2164 0.91351
4275.56 0.609674 0.610713 27.0198 0.913482
4275.91 0.614783 0.616866 26.8108 0.913453
4276.26 0.620294 0.623398 26.5713 0.913421
4276.61 0.626132 0.630121 26.335 0.913388
4276.96 0.63227 0.636882 26.1036 0.913353
4277.31 0.639039 0.643535 25.876 0.913316
4277.66 0.646962 0.649956 25.6392 0.913278
4278.01 0.655946 0.65605 25.3419 0.913237
4278.36 0.664353 0.661727 25.0497 0.913195
4278.71 0.670401 0.666921 24.8963 0.913152
4279.06 0.673861 0.671586 24.8381 0.913106
4279.41 0.675746 0.675661 24.7807 0.913059
4279.76 0.676994 0.679063 24.7582 0.913011
4280.11 0.678143 0.681734 24.7356 0.91296
4280.46 0.67962 0.683658 24.7082 0.912908
4280.81 0.681441 0.684864 24.6747 0.912855
4281.16 0.683148 0.685434 24.6413 0.9128
4281.51 0.684279 0.68551 24.6364 0.912744
4281.86 0.684518 0.685224 24.6354 0.912686
4282.21 0.683601 0.684643 24.6586 0.912626
4282.56 0.681583 0.68377 24.7366 0.912566
4282.91 0.679047 0.682561 24.815 0.912503
4283.26 0.67658 0.68094 24.9147 0.912439
4283.61 0.674357 0.678837 25.0224 0.912374
4283.96 0.672332 0.676234 25.126 0.912308
4284.31 0.670373 0.673189 25.2067 0.91224
4284.66 0.668142 0.669802 25.2878 0.912171
4285.01 0.665285 0.666214 25.3887 0.9121
4285.36 0.661661 0.662578 25.5031 0.912029
4285.71 0.657289 0.659008 25.6199 0.911956
4286.06 0.652307 0.655536 25.7795 0.911881
4286.41 0.647252 0.652143 25.9406 0.911806
4286.76 0.642745 0.648764 26.0949 0.911729
4287.12 0.639092 0.645318 26.241 0.911651
4287.47 0.636269 0.64177 26.3883 0.911572
4287.82 0.634133 0.638196 26.4861 0.911492
4288.17 0.632015 0.634708 26.5789 0.911411
4288.52 0.629079 0.631434 26.6846 0.911328
4288.87 0.625215 0.628487 26.815 0.911245
4289.22 0.621418 0.625942 26.9463 0.91116
4289.57 0.618655 0.623803 27.0602 0.911075
4289.92 0.616899 0.622058 27.1695 0.910988
4290.27 0.615646 0.620705 27.2677 0.910901
4290.62 0.614567 0.619747 27.3223 0.910812
4290.98 0.613726 0.619168 27.377 0.910722
4291.33 0.61323 0.618926 27.4117 0.910632
4291.68 0.613102 0.618928 27.4353 0.910541
4292.03 0.613304 0.619044 27.457 0.910448
4292.38 0.61378 0.619139 27.4564 0.910355
4292.73 0.614409 0.619103 27.4558 0.910261
4293.08 0.615061 0.618885 27.444 0.910167
4293.43 0.615646 0.618473 27.4219 0.910071
4293.79 0.616115 0.617843 27.3997 0.909975
4294.14 0.616401 0.616938 27.3682 0.909877
4294.49 0.616362 0.615678 27.3362 0.90978
4294.84 0.615828 0.613955 27.3491 0.909681
4295.19 0.614454 0.611666 27.4306 0.909582
4295.54 0.611663 0.608768 27.5125 0.909482
4295.89 0.607038 0.605282 27.7264 0.909381
4296.25 0.601317 0.601254 27.9692 0.90928
4296.6 0.595703 0.596735 28.212 0.909178
4296.95 0.590832 0.591767 28.4497 0.909075
4297.3 0.586315 0.586372 28.6905 0.908972
4297.65 0.581655 0.580552 28.9522 0.908869
4298.0 0.576394 0.574331 29.2249 0.908764
4298.35 0.570093 0.567797 29.5125 0.90866
4298.71 0.562765 0.561109 29.8656 0.908555
4299.06 0.555562 0.554437 30.2251 0.908449
4299.41 0.549717 0.547963 30.5103 0.908343
4299.76 0.544975 0.541848 30.7443 0.908236
4300.11 0.539926 0.53619 30.9837 0.908129
4300.47 0.533662 0.531004 31.2945 0.908022
4300.82 0.527185 0.526275 31.6101 0.907914
4301.17 0.521883 0.521948 31.8669 0.907806
4301.52 0.518074 0.517933 32.0573 0.907698
4301.87 0.51495 0.514141 32.2494 0.907589
4302.22 0.511742 0.510534 32.4787 0.90748
4302.58 0.508156 0.507084 32.7134 0.907371
4302.93 0.504053 0.503788 32.9597 0.907262
4303.28 0.4996 0.500695 33.2246 0.907152
4303.63 0.495399 0.497859 33.4927 0.907042
4303.99 0.492028 0.495308 33.6982 0.906932
4304.34 0.489642 0.493059 33.8899 0.906822
4304.69 0.488215 0.491115 34.0504 0.906712
4305.04 0.487462 0.489448 34.115 0.906601
4305.39 0.486612 0.488038 34.1798 0.906491
4305.75 0.484952 0.486886 34.2663 0.90638
4306.1 0.482951 0.486012 34.3625 0.90627
4306.45 0.481779 0.48543 34.4348 0.906159
4306.8 0.482131 0.48514 34.3634 0.906048
4307.16 0.483444 0.48514 34.2922 0.905938
4307.51 0.484974 0.485478 34.2253 0.905827
4307.86 0.486373 0.486247 34.1614 0.905717
4308.21 0.487602 0.487573 34.0961 0.905606
4308.57 0.48877 0.489618 33.9928 0.905496
4308.92 0.490484 0.492548 33.8899 0.905385
4309.27 0.493445 0.49647 33.7034 0.905275
4309.62 0.497966 0.501418 33.4297 0.905165
4309.98 0.503955 0.507406 33.1592 0.905055
4310.33 0.511279 0.514462 32.7931 0.904946
4310.68 0.519705 0.522611 32.4258 0.904836
4311.03 0.528973 0.531872 31.9752 0.904727
4311.39 0.539021 0.54225 31.3917 0.904618
4311.74 0.55006 0.553708 30.8239 0.90451
4312.09 0.562286 0.566123 30.1636 0.904401
4312.44 0.575666 0.579324 29.5028 0.904294
4312.8 0.590069 0.593146 28.8507 0.904186
4313.15 0.605275 0.60746 28.188 0.904079
4313.5 0.620906 0.622155 27.5479 0.903972
4313.86 0.636578 0.637126 26.9374 0.903865
4314.21 0.652013 0.652252 26.3499 0.903759
4314.56 0.666991 0.66738 25.7883 0.903654
4314.92 0.681408 0.682296 25.2757 0.903549
4315.27 0.695438 0.696768 24.7781 0.903444
4315.62 0.709269 0.710595 24.3246 0.90334
4315.97 0.722794 0.723626 23.9003 0.903236
4316.33 0.735687 0.735745 23.4916 0.903133
4316.68 0.747774 0.746882 23.1444 0.903031
4317.03 0.759355 0.756986 22.8047 0.902929
4317.39 0.770787 0.765982 22.5156 0.902828
4317.74 0.781585 0.773746 22.2694 0.902727
4318.09 0.79049 0.780139 22.0272 0.902627
4318.45 0.796441 0.785029 21.9442 0.902528
4318.8 0.799335 0.788301 21.8643 0.902429
4319.15 0.799335 0.789885 21.8448 0.902331
4319.51 0.797079 0.789779 21.903 0.902233
4319.86 0.793768 0.788022 21.9616 0.902137
4320.21 0.790348 0.784674 22.0506 0.902041
4320.57 0.78616 0.779824 22.1439 0.901945
4320.92 0.780001 0.773626 22.2954 0.901851
4321.27 0.771571 0.766294 22.5605 0.901757
4321.63 0.761928 0.758101 22.8303 0.901664
4321.98 0.752142 0.749383 23.1164 0.901571
4322.34 0.742514 0.740485 23.4109 0.90148
4322.69 0.732996 0.731695 23.7072 0.901389
4323.04 0.723676 0.72322 23.9974 0.901299
4323.4 0.714906 0.715229 24.293 0.901209
4323.75 0.707055 0.707856 24.5484 0.901121
4324.1 0.700383 0.701243 24.7888 0.901034
4324.46 0.695091 0.69556 25.0151 0.900947
4324.81 0.691254 0.691 25.1532 0.900861
4325.17 0.688647 0.687724 25.2924 0.900776
4325.52 0.687018 0.685844 25.3525 0.900692
4325.87 0.686353 0.685415 25.3637 0.900609
4326.23 0.686816 0.686415 25.3685 0.900527
4326.58 0.68845 0.688754 25.2967 0.900446
4326.94 0.690901 0.69232 25.2251 0.900365
4327.29 0.693786 0.696992 25.1182 0.900286
4327.64 0.697605 0.702648 24.9812 0.900208
4328.0 0.703672 0.709184 24.8453 0.90013
4328.35 0.712845 0.716541 24.5322 0.900054
4328.71 0.72402 0.724651 24.2238 0.899979
4329.06 0.735599 0.733395 23.9235 0.899904
4329.41 0.746327 0.742587 23.6315 0.899831
4329.77 0.755334 0.751989 23.3448 0.899759
4330.12 0.762154 0.76129 23.1804 0.899688
4330.48 0.76834 0.770165 23.0291 0.899618
4330.83 0.776061 0.778343 22.8429 0.899549
4331.19 0.785652 0.785649 22.5983 0.899481
4331.54 0.794875 0.791963 22.3576 0.899414
4331.89 0.80162 0.797233 22.2035 0.899348
4332.25 0.805938 0.801444 22.0678 0.899284
4332.6 0.808762 0.804579 21.9559 0.899221
4332.96 0.810666 0.8066 21.8993 0.899159
4333.31 0.811593 0.807476 21.843 0.899098
4333.67 0.811426 0.807169 21.8607 0.899038
4334.02 0.810037 0.805661 21.9028 0.89898
4334.38 0.807297 0.802955 21.9644 0.898922
4334.73 0.803181 0.799094 22.0978 0.898866
4335.09 0.797884 0.794154 22.2324 0.898812
4335.44 0.791635 0.788252 22.4098 0.898758
4335.8 0.784712 0.781512 22.6094 0.898706
4336.15 0.777424 0.774101 22.8147 0.898655
4336.5 0.770043 0.766218 23.0418 0.898605
4336.86 0.762747 0.758051 23.2724 0.898557
4337.21 0.755667 0.749765 23.5185 0.89851
4337.57 0.748521 0.741535 23.7766 0.898465
4337.92 0.74071 0.733498 24.0392 0.898421
4338.28 0.731931 0.725762 24.3089 0.898378
4338.63 0.722877 0.718453 24.5832 0.898336
4338.99 0.714431 0.71175 24.8223 0.898296
4339.34 0.707264 0.705865 25.0293 0.898258
4339.7 0.701851 0.701024 25.239 0.89822
4340.05 0.698472 0.697427 25.3487 0.898185
4340.41 0.696656 0.695202 25.4588 0.89815
4340.76 0.695746 0.694368 25.5413 0.898118
4341.12 0.695273 0.694825 25.5913 0.898086
4341.47 0.694971 0.696411 25.6414 0.898057
4341.83 0.694724 0.698946 25.6211 0.898028
4342.19 0.695123 0.702275 25.5954 0.898001
4342.54 0.696967 0.706291 25.5075 0.897976
4342.9 0.700745 0.710943 25.3255 0.897953
4343.25 0.706538 0.716198 25.1455 0.89793
4343.61 0.714293 0.722034 24.8981 0.89791
4343.96 0.723304 0.728401 24.6434 0.897891
4344.32 0.732622 0.73518 24.3979 0.897874
4344.67 0.741486 0.742204 24.1668 0.897858
4345.03 0.749431 0.749264 23.939 0.897844
4345.38 0.756104 0.756115 23.7677 0.897831
4345.74 0.761823 0.762518 23.6117 0.89782
4346.09 0.767201 0.768288 23.4623 0.897811
4346.45 0.77253 0.773304 23.328 0.897804
4346.81 0.777495 0.777514 23.1949 0.897798
4347.16 0.781728 0.780938 23.1108 0.897794
4347.52 0.78496 0.783626 23.0444 0.897792
4347.87 0.786978 0.785625 22.993 0.897791
4348.23 0.787754 0.78696 22.9992 0.897793
4348.58 0.787665 0.787619 23.0053 0.897795
4348.94 0.787129 0.787562 23.0289 0.8978
4349.3 0.786409 0.786754 23.061 0.897807
4349.65 0.785667 0.785205 23.0943 0.897815
4350.01 0.784955 0.782992 23.1345 0.897825
4350.36 0.78403 0.78026 23.1749 0.897837
4350.72 0.782611 0.777217 23.2307 0.897851
4351.08 0.780508 0.77411 23.2963 0.897867
4351.43 0.7776 0.771153 23.3728 0.897884
4351.79 0.773814 0.76848 23.5593 0.897904
4352.14 0.76923 0.766156 23.748 0.897925
4352.5 0.763998 0.764195 23.9021 0.897948
4352.86 0.759011 0.762569 24.0287 0.897974
4353.21 0.75579 0.761269 24.1503 0.898001
4353.57 0.755368 0.76035 24.1089 0.89803
4353.92 0.756927 0.75993 24.0675 0.898061
4354.28 0.759248 0.760136 24.0262 0.898094
4354.64 0.761395 0.761081 23.9849 0.898129
4354.99 0.762708 0.762832 23.9437 0.898166
4355.35 0.762839 0.765354 23.9585 0.898205
4355.71 0.762706 0.768503 23.9744 0.898246
4356.06 0.763537 0.772086 23.9498 0.898289
4356.42 0.765953 0.775893 23.8773 0.898335
4356.78 0.76989 0.779738 23.8052 0.898382
4357.13 0.775144 0.783526 23.6368 0.898431
4357.49 0.78099 0.787269 23.4631 0.898483
4357.85 0.786553 0.791024 23.3128 0.898536
4358.2 0.791348 0.794868 23.1948 0.898592
4358.56 0.795379 0.798867 23.0778 0.89865
4358.91 0.798744 0.803026 22.9796 0.89871
4359.27 0.80187 0.807266 22.8844 0.898772
4359.63 0.805301 0.81149 22.788 0.898836
4359.98 0.809333 0.815607 22.689 0.898903
4360.34 0.813902 0.819541 22.5907 0.898971
4360.7 0.818842 0.823268 22.4865 0.899042
4361.06 0.823479 0.826833 22.3818 0.899116
4361.41 0.826946 0.830297 22.295 0.899191
4361.77 0.829226 0.833701 22.2463 0.899269
4362.13 0.831691 0.837067 22.1978 0.899349
4362.48 0.835596 0.840358 22.1056 0.899431
4362.84 0.840343 0.843453 22.0025 0.899515
4363.2 0.844492 0.846201 21.9228 0.899601
4363.55 0.847177 0.848439 21.9042 0.89969
4363.91 0.848607 0.850021 21.8856 0.899781
4364.27 0.849114 0.850862 21.8843 0.899873
4364.62 0.849153 0.850982 21.8888 0.899968
4364.98 0.849236 0.850452 21.8918 0.900065
4365.34 0.849618 0.849404 21.8897 0.900163
4365.7 0.850024 0.848 21.8876 0.900264
4366.05 0.850102 0.846372 21.8994 0.900366
4366.41 0.849384 0.844585 21.9171 0.900471
4366.77 0.847342 0.842666 21.947 0.900577
4367.13 0.843792 0.840557 22.0293 0.900685
4367.48 0.839347 0.838153 22.1121 0.900795
4367.84 0.834697 0.835382 22.23 0.900906
4368.2 0.830133 0.832212 22.3658 0.90102
4368.55 0.825696 0.828654 22.5005 0.901135
4368.91 0.821403 0.8248 22.6229 0.901252
4369.27 0.817223 0.82079 22.7463 0.90137
4369.63 0.813124 0.816746 22.8565 0.90149
4369.98 0.809111 0.812757 22.9592 0.901612
4370.34 0.805218 0.80887 23.062 0.901735
4370.7 0.801473 0.805066 23.1611 0.90186
4371.06 0.797889 0.801291 23.2609 0.901986
4371.42 0.794473 0.797494 23.369 0.902114
4371.77 0.791204 0.793646 23.483 0.902243
4372.13 0.78804 0.78976 23.597 0.902374
4372.49 0.784901 0.785898 23.7025 0.902506
4372.85 0.781595 0.782164 23.8087 0.902639
4373.2 0.777939 0.77866 23.9114 0.902774
4373.56 0.774236 0.775482 24.0116 0.90291
4373.92 0.771201 0.77271 24.111 0.903048
4374.28 0.769334 0.770378 24.1861 0.903186
4374.64 0.768362 0.768464 24.2616 0.903326
4374.99 0.76784 0.766915 24.3306 0.903467
4375.35 0.767095 0.765626 24.3942 0.903609
4375.71 0.765255 0.764465 24.4588 0.903753
4376.07 0.761922 0.763308 24.5523 0.903897
4376.43 0.758491 0.762059 24.6463 0.904043
4376.78 0.756698 0.760633 24.69 0.90419
4377.14 0.756641 0.758971 24.6854 0.904337
4377.5 0.756824 0.757024 24.6807 0.904486
4377.86 0.755984 0.754713 24.7503 0.904636
4378.22 0.754034 0.751932 24.8203 0.904786
4378.57 0.751186 0.748594 24.9109 0.904938
4378.93 0.747606 0.744612 25.0235 0.90509
4379.29 0.743417 0.739934 25.1369 0.905244
4379.65 0.738709 0.734562 25.2977 0.905398
4380.01 0.733432 0.728551 25.4614 0.905553
4380.37 0.727505 0.721986 25.6558 0.905709
4380.72 0.720951 0.715007 25.8867 0.905865
4381.08 0.713907 0.707769 26.1208 0.906022
4381.44 0.706547 0.70044 26.4163 0.90618
4381.8 0.699169 0.693197 26.72 0.906339
4382.16 0.692108 0.686218 26.9983 0.906498
4382.52 0.685613 0.679632 27.2417 0.906658
4382.88 0.679836 0.673553 27.4884 0.906818
4383.23 0.674898 0.668084 27.6521 0.906979
4383.59 0.67082 0.663318 27.8109 0.90714
4383.95 0.667585 0.659332 27.9403 0.907302
4384.31 0.665164 0.65622 28.0281 0.907465
4384.67 0.663505 0.654082 28.1164 0.907628
4385.03 0.662566 0.652994 28.1468 0.907791
4385.39 0.662344 0.653004 28.1717 0.907955
4385.74 0.662853 0.65414 28.1645 0.908119
4386.1 0.664136 0.656394 28.1102 0.908283
4386.46 0.666274 0.659681 28.056 0.908448
4386.82 0.669317 0.663858 27.8933 0.908612
4387.18 0.673124 0.668747 27.7195 0.908778
4387.54 0.677492 0.67413 27.548 0.908943
4387.9 0.682264 0.679795 27.379 0.909108
4388.26 0.687343 0.685593 27.2115 0.909274
4388.62 0.692659 0.691437 27.0372 0.90944
4388.98 0.698262 0.697283 26.8635 0.909606
4389.33 0.70424 0.70314 26.6796 0.909772
4389.69 0.710584 0.709032 26.478 0.909938
4390.05 0.717143 0.714948 26.2787 0.910104
4390.41 0.723706 0.720863 26.0556 0.91027
4390.77 0.729766 0.726727 25.8313 0.910436
4391.13 0.734715 0.732476 25.6619 0.910602
4391.49 0.738471 0.738059 25.5844 0.910767
4391.85 0.741699 0.743465 25.5073 0.910933
4392.21 0.745088 0.748687 25.3748 0.911099
4392.57 0.749112 0.753733 25.2343 0.911264
4392.93 0.754155 0.758624 25.0801 0.911429
4393.29 0.760208 0.76339 24.9003 0.911594
4393.65 0.766682 0.768052 24.7225 0.911758
4394.01 0.772951 0.77264 24.5724 0.911923
4394.37 0.77845 0.77717 24.4283 0.912087
4394.72 0.782641 0.781621 24.3132 0.91225
4395.08 0.785359 0.78592 24.2508 0.912413
4395.44 0.786992 0.789966 24.1887 0.912576
4395.8 0.787984 0.793645 24.1773 0.912739
4396.16 0.78883 0.796866 24.1752 0.912901
4396.52 0.790042 0.799566 24.1556 0.913062
4396.88 0.791925 0.801743 24.1026 0.913223
4397.24 0.794473 0.803425 24.0498 0.913383
4397.6 0.797579 0.80462 23.9889 0.913543
4397.96 0.800657 0.805309 23.9268 0.913702
4398.32 0.802933 0.805465 23.8828 0.913861
4398.68 0.803923 0.805029 23.874 0.914018
4399.04 0.803583 0.80396 23.8652 0.914175
4399.4 0.801952 0.802257 23.9126 0.914332
4399.76 0.799387 0.799915 23.9711 0.914488
4400.12 0.796358 0.796938 24.0417 0.914642
4400.48 0.792787 0.793353 24.1361 0.914796
4400.84 0.787753 0.789175 24.2312 0.91495
4401.2 0.780578 0.784425 24.4564 0.915102
4401.56 0.772647 0.779196 24.7104 0.915254
4401.92 0.766152 0.77362 24.9297 0.915404
4402.28 0.761908 0.767835 25.0761 0.915554
4402.64 0.758625 0.762002 25.2237 0.915702
4403.0 0.754995 0.756288 25.3626 0.91585
4403.36 0.750766 0.750842 25.5007 0.915996
4403.72 0.746112 0.745803 25.632 0.916142
4404.08 0.741515 0.741314 25.7488 0.916286
4404.44 0.737923 0.737515 25.8665 0.91643
4404.8 0.736132 0.734525 25.9287 0.916572
4405.16 0.735712 0.732431 25.9807 0.916713
4405.53 0.735754 0.731296 26.0414 0.916852
4405.89 0.73565 0.731149 26.1183 0.916991
4406.25 0.735249 0.732007 26.1956 0.917128
4406.61 0.734611 0.733876 26.1912 0.917264
4406.97 0.734901 0.73675 26.1724 0.917399
4407.33 0.737696 0.740604 26.0648 0.917532
4407.69 0.743693 0.745383 25.7981 0.917664
4408.05 0.75229 0.750971 25.5355 0.917795
4408.41 0.762684 0.757198 25.2145 0.917924
4408.77 0.773452 0.763866 24.8895 0.918051
4409.13 0.78295 0.770763 24.6087 0.918178
4409.49 0.790153 0.777687 24.3986 0.918303
4409.85 0.794921 0.78449 24.1911 0.918426
4410.21 0.797538 0.791074 24.118 0.918549
4410.57 0.800392 0.797348 24.0652 0.918669
4410.94 0.806591 0.803238 23.9018 0.918789
4411.3 0.816722 0.808681 23.5589 0.918907
4411.66 0.827858 0.813594 23.2234 0.919024
4412.02 0.837098 0.817874 23.0544 0.919139
4412.38 0.843147 0.82144 22.9086 0.919253
4412.74 0.845305 0.824237 22.8487 0.919366
4413.1 0.843724 0.82627 22.9226 0.919477
4413.46 0.8397 0.827617 22.997 0.919587
4413.82 0.834612 0.828429 23.1765 0.919695
4414.18 0.829849 0.828938 23.3706 0.919802
4414.55 0.826785 0.8294 23.5174 0.919908
4414.91 0.825966 0.830021 23.5915 0.920012
4415.27 0.826876 0.830938 23.666 0.920116
4415.63 0.828884 0.832211 23.5699 0.920217
4415.99 0.831149 0.833757 23.458 0.920318
4416.35 0.832777 0.835416 23.3865 0.920417
4416.71 0.83363 0.837037 23.37 0.920514
4417.07 0.834496 0.838503 23.3535 0.920611
4417.44 0.83607 0.839753 23.3323 0.920706
4417.8 0.838297 0.840882 23.3107 0.920799
4418.16 0.840883 0.842045 23.283 0.920892
4418.52 0.843317 0.843398 23.2474 0.920982
4418.88 0.844834 0.84506 23.2118 0.921072
4419.24 0.844956 0.84706 23.2064 0.92116
4419.61 0.844607 0.849265 23.2026 0.921247
4419.97 0.845082 0.851486 23.1929 0.921333
4420.33 0.846673 0.853524 23.1761 0.921417
4420.69 0.848561 0.855188 23.1593 0.9215
4421.05 0.850042 0.856383 23.1251 0.921582
4421.41 0.851169 0.857142 23.0904 0.921662
4421.78 0.852192 0.857535 23.0551 0.921741
4422.14 0.853264 0.857648 23.0191 0.921819
4422.5 0.854437 0.857581 22.9832 0.921895
4422.86 0.855692 0.857385 22.9685 0.92197
4423.22 0.85675 0.85705 22.9539 0.922044
4423.58 0.857268 0.856563 22.9606 0.922116
4423.95 0.85691 0.855917 22.9879 0.922187
4424.31 0.855347 0.855099 23.0163 0.922257
4424.67 0.85256 0.854128 23.0896 0.922326
4425.03 0.849703 0.85308 23.1633 0.922393
4425.39 0.848139 0.852054 23.1956 0.922459
4425.76 0.84809 0.851159 23.1922 0.922523
4426.12 0.848745 0.850497 23.1903 0.922587
4426.48 0.849381 0.850123 23.2149 0.922649
4426.84 0.849724 0.849994 23.2396 0.922709
4427.21 0.849609 0.849996 23.2679 0.922769
4427.57 0.849074 0.849974 23.2989 0.922827
4427.93 0.848336 0.849782 23.3283 0.922884
4428.29 0.847557 0.849337 23.3401 0.922939
4428.65 0.846722 0.848684 23.3518 0.922993
4429.02 0.845765 0.847925 23.3749 0.923046
4429.38 0.844371 0.847155 23.4056 0.923098
4429.74 0.842032 0.846418 23.4406 0.923148
4430.1 0.838748 0.845693 23.5077 0.923198
4430.47 0.835967 0.844864 23.5751 0.923245
4430.83 0.835268 0.843814 23.585 0.923292
4431.19 0.836556 0.842512 23.5613 0.923337
4431.55 0.838544 0.841021 23.5411 0.923381
4431.92 0.840049 0.839455 23.5408 0.923424
4432.28 0.840204 0.837962 23.5406 0.923465
4432.64 0.838305 0.836681 23.5927 0.923506
4433.0 0.834919 0.83569 23.6714 0.923545
4433.37 0.831431 0.835012 23.748 0.923582
4433.73 0.828934 0.834665 23.814 0.923619
4434.09 0.827798 0.834679 23.8803 0.923654
4434.46 0.828243 0.835068 23.8759 0.923688
4434.82 0.829968 0.835826 23.842 0.923721
4435.18 0.832367 0.836928 23.8036 0.923752
4435.54 0.834911 0.83832 23.7498 0.923782
4435.91 0.837232 0.839952 23.6961 0.923811
4436.27 0.83902 0.841798 23.655 0.923839
4436.63 0.840295 0.843866 23.6181 0.923865
4437.0 0.841247 0.846189 23.5866 0.92389
4437.36 0.842134 0.848781 23.5701 0.923914
4437.72 0.843328 0.851595 23.5535 0.923937
4438.09 0.845183 0.854537 23.5277 0.923959
4438.45 0.847804 0.85749 23.4993 0.923979
4438.81 0.851176 0.860329 23.4482 0.923998
4439.17 0.855047 0.862962 23.3463 0.924016
4439.54 0.85877 0.865378 23.245 0.924032
4439.9 0.861756 0.867613 23.1901 0.924047
4440.26 0.864055 0.869709 23.1448 0.924062
4440.63 0.865982 0.871719 23.1028 0.924074
4440.99 0.867881 0.87369 23.0667 0.924086
4441.35 0.870144 0.875641 23.0307 0.924097
4441.72 0.873105 0.877569 22.9753 0.924106
4442.08 0.876736 0.879469 22.9172 0.924114
4442.44 0.880875 0.881326 22.8449 0.924121
4442.81 0.88511 0.883132 22.7512 0.924126
4443.17 0.8887 0.884888 22.6581 0.92413
4443.54 0.891073 0.886613 22.6145 0.924134
4443.9 0.892597 0.888373 22.5752 0.924136
4444.26 0.893923 0.890253 22.5573 0.924136
4444.63 0.895262 0.892314 22.5657 0.924136
4444.99 0.896326 0.894593 22.5741 0.924134
4445.35 0.896908 0.897115 22.5637 0.924131
4445.72 0.897302 0.89986 22.5528 0.924127
4446.08 0.897935 0.90276 22.5227 0.924122
4446.44 0.89928 0.905726 22.4732 0.924116
4446.81 0.901855 0.90863 22.4232 0.924108
4447.17 0.905912 0.911293 22.3444 0.924099
4447.54 0.9107 0.913511 22.2661 0.924089
4447.9 0.915262 0.915105 22.1774 0.924078
4448.26 0.919071 0.91595 22.0806 0.924065
4448.63 0.921983 0.915997 21.9902 0.924052
4448.99 0.923813 0.91526 21.9679 0.924037
4449.36 0.924211 0.913818 21.9457 0.924021
4449.72 0.922814 0.911761 21.9905 0.924004
4450.08 0.919559 0.909147 22.0793 0.923986
4450.45 0.914611 0.905991 22.1798 0.923966
4450.81 0.908248 0.9023 22.3545 0.923946
4451.18 0.901035 0.898064 22.5312 0.923924
4451.54 0.893582 0.893281 22.7223 0.923901
4451.91 0.886443 0.887974 22.9222 0.923877
4452.27 0.880132 0.882192 23.1065 0.923852
4452.63 0.874835 0.876 23.2153 0.923825
4453.0 0.869976 0.869482 23.3248 0.923798
4453.36 0.864926 0.862732 23.4366 0.923769
4453.73 0.859523 0.855857 23.5498 0.923739
4454.09 0.85387 0.848964 23.6715 0.923708
4454.46 0.84809 0.842133 23.8176 0.923676
4454.82 0.842335 0.835428 23.9651 0.923642
4455.18 0.836744 0.828898 24.1314 0.923608
4455.55 0.831306 0.822586 24.3043 0.923572
4455.91 0.825938 0.81655 24.4805 0.923536
4456.28 0.820488 0.810872 24.6617 0.923498
4456.64 0.814693 0.805657 24.8448 0.923459
4457.01 0.808415 0.801032 25.0554 0.923419
4457.37 0.80242 0.797119 25.2735 0.923379
4457.74 0.797813 0.794022 25.4388 0.923337
4458.1 0.794999 0.791797 25.5127 0.923294
4458.47 0.793406 0.790429 25.5868 0.923251
4458.83 0.792498 0.789837 25.5882 0.923207
4459.2 0.792282 0.789898 25.5821 0.923161
4459.56 0.792942 0.790475 25.5564 0.923115
4459.93 0.794599 0.791468 25.5058 0.923068
4460.29 0.797295 0.792846 25.4553 0.923021
4460.66 0.800874 0.794626 25.3958 0.922972
4461.02 0.804339 0.796867 25.3363 0.922923
4461.39 0.806523 0.799639 25.3062 0.922873
4461.75 0.807551 0.802955 25.3043 0.922822
4462.12 0.808813 0.806753 25.2981 0.922771
4462.48 0.811361 0.81093 25.1945 0.922719
4462.85 0.814888 0.815337 25.0916 0.922666
4463.21 0.818799 0.819799 24.9951 0.922612
4463.58 0.822743 0.824198 24.9032 0.922559
4463.94 0.82656 0.828491 24.8127 0.922504
4464.31 0.830179 0.832669 24.7288 0.922449
4464.67 0.833746 0.836771 24.6454 0.922393
4465.04 0.837437 0.840871 24.5494 0.922337
4465.4 0.841302 0.845019 24.4471 0.922281
4465.77 0.845304 0.849208 24.3397 0.922224
4466.13 0.849317 0.853403 24.2085 0.922166
4466.5 0.853008 0.857543 24.0782 0.922108
4466.86 0.85609 0.86155 23.9762 0.92205
4467.23 0.858971 0.865357 23.8851 0.921991
4467.6 0.862442 0.868951 23.7937 0.921932
4467.96 0.866854 0.872365 23.7005 0.921873
4468.33 0.871713 0.875669 23.6078 0.921813
4468.69 0.876445 0.878955 23.522 0.921753
4469.06 0.880565 0.882321 23.4382 0.921693
4469.42 0.883636 0.885849 23.3605 0.921632
4469.79 0.885833 0.889577 23.2942 0.921572
4470.15 0.888271 0.893484 23.2282 0.921511
4470.52 0.891928 0.897533 23.1223 0.92145
4470.89 0.896528 0.901682 23.0115 0.921389
4471.25 0.901351 0.905891 22.9122 0.921327
4471.62 0.906036 0.910144 22.8284 0.921266
4471.98 0.91067 0.914455 22.7451 0.921204
4472.35 0.915364 0.918837 22.6471 0.921143
4472.72 0.920208 0.923285 22.5489 0.921081
4473.08 0.925282 0.927775 22.4373 0.92102
4473.45 0.930576 0.932243 22.3124 0.920958
4473.81 0.935989 0.936582 22.1878 0.920896
4474.18 0.941382 0.940668 22.0472 0.920835
4474.55 0.946503 0.944366 21.908 0.920774
4474.91 0.951061 0.947553 21.8144 0.920712
4475.28 0.954584 0.950156 21.7537 0.920651
4475.64 0.95645 0.952179 21.7041 0.92059
4476.01 0.956424 0.953662 21.7334 0.920529
4476.38 0.955363 0.954653 21.7628 0.920468
4476.74 0.954261 0.955189 21.7966 0.920408
4477.11 0.953461 0.955269 21.8325 0.920347
4477.48 0.952888 0.95482 21.8672 0.920287
4477.84 0.952376 0.953796 21.8963 0.920228
4478.21 0.951591 0.952222 21.9255 0.920168
4478.57 0.950243 0.950176 21.9514 0.920109
4478.94 0.948684 0.947792 21.9763 0.92005
4479.31 0.947587 0.945269 21.998 0.919992
4479.67 0.947159 0.942779 22.0121 0.919934
4480.04 0.946799 0.940449 22.0263 0.919876
4480.41 0.945905 0.938392 22.0721 0.919819
4480.77 0.944411 0.936701 22.1242 0.919762
4481.14 0.942465 0.93544 22.1792 0.919706
4481.51 0.940297 0.934644 22.2389 0.919651
4481.87 0.938251 0.934303 22.2988 0.919595
4482.24 0.936647 0.934368 22.3391 0.919541
4482.61 0.935677 0.934773 22.378 0.919487
4482.97 0.935479 0.935457 22.3963 0.919433
4483.34 0.935982 0.936367 22.3917 0.91938
4483.71 0.936892 0.937475 22.3866 0.919328
4484.07 0.938038 0.938755 22.3615 0.919276
4484.44 0.939769 0.940152 22.3365 0.919226
4484.81 0.942517 0.941588 22.2806 0.919175
4485.18 0.946086 0.943011 22.2016 0.919126
4485.54 0.949754 0.944377 22.1247 0.919077
4485.91 0.952913 0.945642 22.0609 0.919029
4486.28 0.95533 0.946777 21.9974 0.918982
4486.64 0.95686 0.947744 21.9629 0.918936
4487.01 0.95763 0.94846 21.9433 0.91889
4487.38 0.957942 0.948822 21.9347 0.918846
4487.74 0.958029 0.948736 21.9673 0.918802
4488.11 0.957963 0.948121 22.0001 0.918759
4488.48 0.957723 0.946935 22.0234 0.918717
4488.85 0.956675 0.945196 22.0438 0.918676
4489.21 0.95389 0.942988 22.0974 0.918637
4489.58 0.949153 0.940423 22.2255 0.918598
4489.95 0.943444 0.937627 22.3547 0.91856
4490.32 0.937774 0.934738 22.4764 0.918523
4490.68 0.93267 0.931869 22.5977 0.918487
4491.05 0.928468 0.929089 22.7045 0.918452
4491.42 0.925178 0.926458 22.7897 0.918419
4491.79 0.922402 0.924013 22.8754 0.918386
4492.15 0.919796 0.921784 22.9388 0.918355
4492.52 0.917389 0.919812 23.0016 0.918325
4492.89 0.915311 0.91815 23.053 0.918296
4493.26 0.913659 0.916833 23.0935 0.918268
4493.62 0.912493 0.915894 23.132 0.918241
4493.99 0.911835 0.915341 23.1406 0.918216
4494.36 0.911581 0.915166 23.1492 0.918192
4494.73 0.911602 0.915368 23.1508 0.91817
4495.09 0.911803 0.915955 23.1482 0.918148
4495.46 0.912113 0.916925 23.1449 0.918128
4495.83 0.912516 0.918292 23.1383 0.91811
4496.2 0.913125 0.920081 23.1318 0.918093
4496.57 0.914087 0.922323 23.1211 0.918077
4496.93 0.915638 0.925053 23.109 0.918063
4497.3 0.918064 0.928293 23.0725 0.91805
4497.67 0.921517 0.932051 22.9729 0.918039
4498.04 0.925894 0.936299 22.8739 0.918029
4498.41 0.931051 0.94097 22.7518 0.918021
4498.77 0.936728 0.945975 22.6258 0.918014
4499.14 0.942619 0.951238 22.5012 0.918009
4499.51 0.948562 0.956685 22.378 0.918005
4499.88 0.954594 0.962257 22.2559 0.918004
4500.25 0.960781 0.967907 22.1319 0.918003
4500.61 0.967281 0.973582 22.0088 0.918005
4500.98 0.974257 0.979207 21.8677 0.918008
4501.35 0.98142 0.984704 21.7091 0.918013
4501.72 0.988023 0.989995 21.5559 0.918019
4502.09 0.993586 0.995018 21.4735 0.918028
4502.46 0.998614 0.999743 21.3915 0.918038
4502.82 1.00377 1.00418 21.3127 0.91805
4503.19 1.009 1.00833 21.2361 0.918063
4503.56 1.0137 1.01222 21.1612 0.918078
4503.93 1.01747 1.0159 21.0938 0.918095
4504.3 1.02051 1.01938 21.0267 0.918114
4504.67 1.02316 1.02267 20.959 0.918134
4505.04 1.02617 1.02578 20.8913 0.918155
4505.4 1.03055 1.02868 20.8138 0.918179
4505.77 1.03608 1.0313 20.7107 0.918204
4506.14 1.04037 1.03355 20.6084 0.91823
4506.51 1.04126 1.03531 20.632 0.918258
4506.88 1.03966 1.0365 20.6796 0.918288
4507.25 1.03766 1.03707 20.7137 0.918319
4507.62 1.03636 1.03701 20.7275 0.918352
4507.99 1.0355 1.03637 20.7414 0.918386
4508.35 1.03473 1.03527 20.7722 0.918422
4508.72 1.03358 1.03381 20.8038 0.918459
4509.09 1.03161 1.03206 20.8568 0.918498
4509.46 1.02898 1.03011 20.9299 0.918538
4509.83 1.02645 1.02798 20.9987 0.91858
4510.2 1.02458 1.02568 21.0151 0.918623
4510.57 1.02319 1.02323 21.0315 0.918668
4510.94 1.02197 1.02068 21.0566 0.918714
4511.31 1.02042 1.01806 21.0866 0.918761
4511.67 1.01792 1.01538 21.1286 0.91881
4512.04 1.01423 1.01266 21.218 0.91886
4512.41 1.0099 1.00991 21.3081 0.918911
4512.78 1.00556 1.00713 21.3944 0.918964
4513.15 1.00181 1.00438 21.48 0.919018
4513.52 0.999174 1.00173 21.5456 0.919073
4513.89 0.997713 0.999231 21.5692 0.91913
4514.26 0.996714 0.996894 21.5929 0.919188
4514.63 0.995476 0.994713 21.637 0.919247
4515.0 0.993759 0.992688 21.6837 0.919308
4515.37 0.991496 0.990865 21.7434 0.91937
4515.74 0.988976 0.989321 21.819 0.919433
4516.11 0.986898 0.988153 21.8938 0.919497
4516.48 0.985813 0.987427 21.9105 0.919562
4516.85 0.98564 0.987135 21.9271 0.919629
4517.22 0.986135 0.987164 21.923 0.919697
4517.58 0.986891 0.987378 21.9041 0.919766
4517.95 0.987371 0.987642 21.8885 0.919836
4518.32 0.987324 0.987851 21.8913 0.919907
4518.69 0.987243 0.987953 21.8942 0.919979
4519.06 0.987636 0.987949 21.9047 0.920053
4519.43 0.987957 0.987822 21.9182 0.920127
4519.8 0.987076 0.987513 21.9352 0.920203
4520.17 0.984779 0.986924 21.9613 0.92028
4520.54 0.982521 0.985957 21.9875 0.920357
4520.91 0.981692 0.984521 22.0123 0.920436
4521.28 0.982162 0.982549 22.0369 0.920516
4521.65 0.983186 0.980009 22.0723 0.920597
4522.02 0.983561 0.976897 22.1233 0.920679
4522.39 0.981508 0.973184 22.1745 0.920761
4522.76 0.975906 0.968836 22.3097 0.920845
4523.13 0.968603 0.963839 22.448 0.92093
4523.5 0.962105 0.958207 22.5765 0.921016
4523.87 0.956543 0.951996 22.697 0.921102
4524.24 0.94995 0.945294 22.8298 0.92119
4524.61 0.941127 0.938218 23.0518 0.921278
4524.98 0.931271 0.930891 23.277 0.921367
4525.35 0.921928 0.923426 23.4788 0.921458
4525.72 0.913899 0.915933 23.6709 0.921549
4526.09 0.907516 0.908531 23.8474 0.921641
4526.46 0.902474 0.901338 23.9729 0.921733
4526.83 0.897251 0.894462 24.0994 0.921827
4527.21 0.890507 0.887995 24.2829 0.921921
4527.58 0.883097 0.881999 24.4808 0.922016
4527.95 0.876768 0.876493 24.6445 0.922112
4528.32 0.872174 0.871491 24.7535 0.922209
4528.69 0.868528 0.86702 24.8631 0.922306
4529.06 0.865077 0.863144 24.9837 0.922405
4529.43 0.861686 0.859953 25.1055 0.922504
4529.8 0.8584 0.857514 25.2101 0.922603
4530.17 0.855469 0.85584 25.2996 0.922703
4530.54 0.853329 0.854884 25.3812 0.922804
4530.91 0.852363 0.854558 25.3938 0.922906
4531.28 0.852781 0.854789 25.4064 0.923008
4531.65 0.854704 0.855578 25.3556 0.923111
4532.02 0.857619 0.856964 25.2755 0.923215
4532.39 0.86062 0.858995 25.2037 0.923319
4532.76 0.863213 0.861701 25.1557 0.923424
4533.14 0.865701 0.865043 25.1078 0.923529
4533.51 0.868459 0.868917 25.044 0.923635
4533.88 0.871715 0.873231 24.9771 0.923742
4534.25 0.875632 0.877917 24.8924 0.923849
4534.62 0.880246 0.8829 24.7812 0.923957
4534.99 0.885422 0.888107 24.6708 0.924065
4535.36 0.891014 0.893446 24.5064 0.924173
4535.73 0.896871 0.898798 24.3423 0.924283
4536.1 0.902842 0.904059 24.1892 0.924392
4536.47 0.908791 0.909185 24.0451 0.924502
4536.85 0.914593 0.914204 23.9015 0.924613
4537.22 0.92016 0.919192 23.7529 0.924724
4537.59 0.925507 0.9242 23.6058 0.924835
4537.96 0.930666 0.929202 23.4837 0.924947
4538.33 0.935638 0.934111 23.3727 0.925059
4538.7 0.940407 0.93879 23.271 0.925172
4539.07 0.944918 0.943092 23.1921 0.925285
4539.45 0.949047 0.946929 23.1137 0.925398
4539.82 0.952633 0.95029 23.0334 0.925512
4540.19 0.955321 0.953199 22.9532 0.925626
4540.56 0.956704 0.955689 22.9023 0.92574
4540.93 0.957149 0.957782 22.89 0.925854
4541.3 0.957961 0.959472 22.8776 0.925969
4541.67 0.960071 0.960743 22.865 0.926084
4542.05 0.962749 0.961594 22.8525 0.9262
4542.42 0.964878 0.962052 22.8555 0.926315
4542.79 0.965679 0.962175 22.8695 0.926431
4543.16 0.964649 0.962028 22.8905 0.926547
4543.53 0.961758 0.961666 22.9467 0.926664
4543.9 0.958129 0.961118 23.0033 0.92678
4544.28 0.954926 0.960384 23.0899 0.926897
4544.65 0.952112 0.959483 23.1876 0.927014
4545.02 0.949033 0.958481 23.2657 0.927131
4545.39 0.945857 0.957472 23.3018 0.927248
4545.76 0.944088 0.956544 23.338 0.927365
4546.14 0.944965 0.955732 23.3044 0.927482
4546.51 0.947668 0.955007 23.2633 0.9276
4546.88 0.950694 0.954267 23.2253 0.927717
4547.25 0.952702 0.953407 23.1906 0.927835
4547.62 0.952523 0.952384 23.161 0.927952
4548.0 0.949714 0.951254 23.2046 0.92807
4548.37 0.946218 0.950109 23.2484 0.928188
4548.74 0.9443 0.949046 23.26 0.928306
4549.11 0.944095 0.948132 23.2539 0.928423
4549.48 0.944278 0.947411 23.248 0.928541
4549.86 0.94405 0.946923 23.2431 0.928659
4550.23 0.943765 0.946728 23.2382 0.928776
4550.6 0.943876 0.946893 23.2356 0.928894
4550.97 0.944521 0.947493 23.2334 0.929012
4551.35 0.945699 0.948527 23.2302 0.929129
4551.72 0.947252 0.949919 23.2254 0.929247
4552.09 0.948813 0.951568 23.2205 0.929364
4552.46 0.950101 0.953404 23.2029 0.929482
4552.84 0.951264 0.955365 23.1851 0.9296
4553.21 0.952564 0.95745 23.1586 0.929717
4553.58 0.954231 0.959696 23.1255 0.929834
4553.95 0.95647 0.962143 23.0857 0.929952
4554.33 0.959476 0.96481 23.0059 0.930069
4554.7 0.963422 0.967721 22.9265 0.930187
4555.07 0.968449 0.970924 22.8206 0.930304
4555.44 0.97441 0.974487 22.7054 0.930421
4555.82 0.981 0.97847 22.5865 0.930539
4556.19 0.987804 0.982907 22.4584 0.930656
4556.56 0.994226 0.98778 22.3314 0.930773
4556.93 0.999783 0.992937 22.2403 0.93089
4557.31 1.00469 0.998146 22.1536 0.931007
4557.68 1.00938 1.00316 22.0697 0.931125
4558.05 1.01385 1.00774 21.9887 0.931242
4558.43 1.01765 1.01175 21.9108 0.931359
4558.8 1.02045 1.0152 21.8673 0.931476
4559.17 1.02245 1.01815 21.824 0.931593
4559.55 1.02394 1.02069 21.7918 0.931709
4559.92 1.02531 1.0229 21.7652 0.931826
4560.29 1.02696 1.02477 21.7363 0.931943
4560.66 1.02911 1.02622 21.6999 0.93206
4561.04 1.03156 1.0272 21.6636 0.932177
4561.41 1.034 1.02769 21.6201 0.932293
4561.78 1.03592 1.02774 21.5754 0.93241
4562.16 1.03669 1.02743 21.5431 0.932526
4562.53 1.03613 1.02684 21.5278 0.932643
4562.9 1.03462 1.02605 21.5129 0.932759
4563.28 1.03253 1.02511 21.5356 0.932876
4563.65 1.03026 1.02409 21.5583 0.932992
4564.02 1.0282 1.02309 21.5972 0.933109
4564.4 1.02655 1.02223 21.6472 0.933225
4564.77 1.02537 1.02161 21.6966 0.933341
4565.14 1.02474 1.02126 21.7436 0.933457
4565.52 1.02477 1.02116 21.7907 0.933573
4565.89 1.02551 1.02121 21.7959 0.933689
4566.27 1.02633 1.02133 21.7893 0.933805
4566.64 1.02633 1.02147 21.7947 0.933921
4567.01 1.02524 1.02169 21.8203 0.934037
4567.39 1.02365 1.02206 21.846 0.934153
4567.76 1.02225 1.02265 21.865 0.934268
4568.13 1.02171 1.02349 21.8837 0.934384
4568.51 1.02268 1.0245 21.881 0.9345
4568.88 1.02526 1.02556 21.8611 0.934615
4569.26 1.029 1.02656 21.8346 0.934731
4569.63 1.03317 1.02746 21.7701 0.934846
4570.0 1.03625 1.02829 21.706 0.934961
4570.38 1.0368 1.02916 21.7244 0.935076
4570.75 1.03512 1.03015 21.772 0.935192
4571.12 1.03245 1.0313 21.8159 0.935307
4571.5 1.02978 1.03253 21.8525 0.935422
4571.87 1.0278 1.03372 21.8891 0.935537
4572.25 1.02702 1.03475 21.8913 0.935651
4572.62 1.02736 1.0355 21.8908 0.935766
4573.0 1.02857 1.03594 21.8715 0.935881
4573.37 1.03038 1.03604 21.8351 0.935996
4573.74 1.03251 1.03583 21.7985 0.93611
4574.12 1.03464 1.0353 21.76 0.936225
4574.49 1.0363 1.03444 21.7216 0.936339
4574.87 1.03704 1.03329 21.715 0.936453
4575.24 1.03657 1.03189 21.7213 0.936567
4575.61 1.03472 1.03027 21.7458 0.936681
4575.99 1.0315 1.02846 21.8119 0.936795
4576.36 1.02723 1.02647 21.8783 0.936909
4576.74 1.02226 1.02423 21.9881 0.937023
4577.11 1.01712 1.02172 22.1035 0.937137
4577.49 1.01239 1.01889 22.2096 0.937251
4577.86 1.00846 1.01576 22.3063 0.937364
4578.24 1.00551 1.01239 22.401 0.937478
4578.61 1.0035 1.00888 22.4705 0.937591
4578.99 1.0017 1.00534 22.5404 0.937704
4579.36 0.999289 1.00187 22.6071 0.937818
4579.73 0.996245 0.998548 22.6727 0.937931
4580.11 0.992976 0.995443 22.7335 0.938044
4580.48 0.989957 0.992587 22.7823 0.938157
4580.86 0.987757 0.990014 22.8314 0.93827
4581.23 0.986788 0.987753 22.8526 0.938382
4581.61 0.986538 0.98585 22.8704 0.938495
4581.98 0.986199 0.984368 22.8897 0.938607
4582.36 0.985596 0.983363 22.9105 0.93872
4582.73 0.985205 0.982858 22.9302 0.938832
4583.11 0.985285 0.982851 22.9389 0.938944
4583.48 0.985345 0.98329 22.9476 0.939056
4583.86 0.984828 0.98411 22.9418 0.939168
4584.23 0.984042 0.985248 22.9295 0.93928
4584.61 0.983816 0.986659 22.9058 0.939392
4584.98 0.985123 0.988308 22.854 0.939504
4585.36 0.989174 0.990172 22.8025 0.939615
4585.73 0.996606 0.992241 22.6806 0.939726
4586.11 1.00473 0.99451 22.5511 0.939838
4586.48 1.0098 0.996962 22.4738 0.939949
4586.86 1.01072 0.99957 22.4499 0.94006
4587.24 1.00902 1.00229 22.4311 0.940171
4587.61 1.00638 1.00499 22.4619 0.940282
4587.99 1.00437 1.00752 22.4928 0.940393
4588.36 1.00447 1.00975 22.5016 0.940503
4588.74 1.00698 1.01158 22.5007 0.940614
4589.11 1.01145 1.01294 22.4736 0.940724
4589.49 1.01657 1.01385 22.3853 0.940834
4589.86 1.01949 1.01436 22.2975 0.940944
4590.24 1.01802 1.01452 22.3464 0.941054
4590.61 1.01413 1.01438 22.4104 0.941164
4590.99 1.01111 1.01399 22.4469 0.941274
4591.37 1.01014 1.01336 22.4561 0.941384
4591.74 1.0103 1.01248 22.4673 0.941493
4592.12 1.01065 1.01131 22.4935 0.941602
4592.49 1.0104 1.00985 22.5197 0.941712
4592.87 1.00891 1.00809 22.5708 0.941821
4593.24 1.00624 1.00606 22.6322 0.94193
4593.62 1.00289 1.00384 22.6991 0.942039
4594.0 0.999371 1.00154 22.7778 0.942147
4594.37 0.996169 0.99926 22.857 0.942256
4594.75 0.993712 0.997084 22.8835 0.942364
4595.12 0.992032 0.995085 22.9057 0.942472
4595.5 0.991033 0.993318 22.9261 0.942581
4595.88 0.990536 0.991838 22.9449 0.942689
4596.25 0.990281 0.990704 22.9635 0.942796
4596.63 0.990044 0.989932 22.9812 0.942904
4597.0 0.989714 0.989506 22.9988 0.943012
4597.38 0.989217 0.989386 23.0131 0.943119
4597.76 0.988664 0.989495 23.0261 0.943226
4598.13 0.988266 0.98974 23.0291 0.943334
4598.51 0.988319 0.990077 23.0135 0.943441
4598.88 0.989248 0.990487 22.9979 0.943547
4599.26 0.991288 0.990958 22.9496 0.943654
4599.64 0.993763 0.991483 22.9001 0.943761
4600.01 0.995738 0.99208 22.8752 0.943867
4600.39 0.996265 0.99278 22.869 0.943973
4600.77 0.994387 0.993618 22.8749 0.944079
4601.14 0.989572 0.994655 22.9379 0.944185
4601.52 0.982308 0.995968 23.0012 0.94429
4601.9 0.973699 0.997586 23.1192 0.944396
4602.27 0.968474 0.999494 23.2532 0.944501
4602.65 0.972901 1.00168 23.2579 0.944606
4603.03 0.987163 1.00413 23.0654 0.944711
4603.4 1.00342 1.00685 22.8757 0.944815
4603.78 1.01484 1.00984 22.7636 0.94492
4604.16 1.0207 1.01313 22.6523 0.945024
4604.53 1.02188 1.01666 22.5797 0.945128
4604.91 1.02078 1.02037 22.5311 0.945231
4605.29 1.02089 1.02417 22.484 0.945335
4605.66 1.02423 1.02801 22.4417 0.945438
4606.04 1.02972 1.03188 22.3994 0.945541
4606.42 1.03595 1.03583 22.237 0.945643
4606.79 1.04202 1.03989 22.0537 0.945746
4607.17 1.04725 1.04409 21.9081 0.945848
4607.55 1.0514 1.04835 21.8068 0.94595
4607.92 1.05481 1.05256 21.7086 0.946051
4608.3 1.05779 1.05658 21.6462 0.946153
4608.68 1.06058 1.06027 21.584 0.946254
4609.06 1.06339 1.0636 21.5357 0.946354
4609.43 1.06614 1.06662 21.494 0.946455
4609.81 1.0686 1.0694 21.4564 0.946555
4610.19 1.07078 1.072 21.4284 0.946655
4610.56 1.07313 1.07442 21.4006 0.946755
4610.94 1.07602 1.0766 21.3437 0.946854
4611.32 1.07913 1.07846 21.284 0.946953
4611.7 1.08195 1.07995 21.2352 0.947051
4612.07 1.08415 1.08111 21.1965 0.94715
4612.45 1.08562 1.08203 21.1623 0.947248
4612.83 1.08634 1.08283 21.1572 0.947345
4613.21 1.08655 1.08359 21.152 0.947443
4613.58 1.08656 1.08429 21.1729 0.94754
4613.96 1.08671 1.08489 21.2025 0.947636
4614.34 1.08736 1.08534 21.2043 0.947733
4614.72 1.08871 1.08568 21.1577 0.947828
4615.09 1.09063 1.08599 21.1111 0.947924
4615.47 1.09289 1.08638 21.0941 0.948019
4615.85 1.09479 1.08694 21.0776 0.948114
4616.23 1.09554 1.08767 21.0797 0.948208
4616.6 1.095 1.0885 21.0944 0.948303
4616.98 1.09355 1.08936 21.1115 0.948396
4617.36 1.09184 1.0902 21.1374 0.94849
4617.74 1.09118 1.091 21.1633 0.948582
4618.11 1.09264 1.09176 21.135 0.948675
4618.49 1.09529 1.09249 21.0958 0.948767
4618.87 1.09741 1.09316 21.0703 0.948859
4619.25 1.09828 1.09372 21.0613 0.94895
4619.63 1.0983 1.09411 21.0538 0.949041
4620.0 1.09786 1.09432 21.0657 0.949131
4620.38 1.09714 1.09438 21.0776 0.949221
4620.76 1.09628 1.09434 21.0992 0.949311
4621.14 1.09531 1.09426 21.1251 0.9494
4621.52 1.0942 1.09419 21.1527 0.949489
4621.89 1.09309 1.09415 21.1839 0.949577
4622.27 1.09234 1.09413 21.2151 0.949665
4622.65 1.09225 1.09408 21.2109 0.949752
4623.03 1.0926 1.09396 21.204 0.949839
4623.41 1.09304 1.09375 21.1983 0.949926
4623.79 1.09321 1.09345 21.1937 0.950012
4624.16 1.0928 1.09304 21.1913 0.950097
4624.54 1.09165 1.09255 21.1999 0.950182
4624.92 1.08993 1.09202 21.2085 0.950267
4625.3 1.08794 1.09147 21.227 0.950351
4625.68 1.08627 1.09095 21.2483 0.950434
4626.06 1.08563 1.09048 21.2566 0.950517
4626.43 1.08616 1.09006 21.2463 0.9506
4626.81 1.08726 1.08964 21.2364 0.950682
4627.19 1.08832 1.08921 21.2368 0.950764
4627.57 1.08889 1.0887 21.2372 0.950845
4627.95 1.08856 1.0881 21.2509 0.950925
4628.33 1.08742 1.08744 21.2714 0.951005
4628.71 1.08585 1.08676 21.2937 0.951085
4629.09 1.08428 1.08605 21.3204 0.951163
4629.46 1.08333 1.08529 21.3471 0.951242
4629.84 1.08338 1.08445 21.3465 0.95132
4630.22 1.08383 1.08347 21.3431 0.951397
4630.6 1.08373 1.08231 21.3543 0.951474
4630.98 1.08281 1.081 21.3785 0.95155
4631.36 1.08145 1.07953 21.4068 0.951626
4631.74 1.07987 1.07788 21.4574 0.951701
4632.12 1.07789 1.076 21.5083 0.951775
4632.5 1.07529 1.07384 21.5826 0.951849
4632.87 1.07196 1.07135 21.6641 0.951922
4633.25 1.06786 1.06855 21.7565 0.951995
4633.63 1.06324 1.06551 21.8652 0.952067
4634.01 1.05876 1.06232 21.9725 0.952139
4634.39 1.05504 1.05904 22.0097 0.95221
4634.77 1.0524 1.05569 22.047 0.95228
4635.15 1.05105 1.05226 22.0812 0.95235
4635.53 1.05018 1.04873 22.1138 0.952419
4635.91 1.04834 1.0451 22.159 0.952488
4636.29 1.0447 1.04145 22.2365 0.952556
4636.67 1.03949 1.03786 22.3143 0.952623
4637.05 1.03331 1.0344 22.4262 0.952689
4637.42 1.02795 1.03112 22.5423 0.952755
4637.8 1.02544 1.02802 22.6143 0.952821
4638.18 1.02503 1.02508 22.648 0.952886
4638.56 1.02346 1.02226 22.6923 0.95295
4638.94 1.01893 1.01956 22.789 0.953013
4639.32 1.01352 1.01696 22.8863 0.953076
4639.7 1.00967 1.01444 22.9347 0.953138
4640.08 1.00802 1.01201 22.9706 0.953199
4640.46 1.0084 1.00965 22.9872 0.95326
4640.84 1.0099 1.00735 22.9776 0.95332
4641.22 1.01077 1.00511 22.9691 0.95338
4641.6 1.00974 1.0029 22.9797 0.953438
4641.98 1.00728 1.0007 22.9904 0.953496
4642.36 1.0042 0.998448 23.0676 0.953554
4642.74 1.00069 0.996087 23.1761 0.95361
4643.12 0.996549 0.993551 23.2795 0.953666
4643.5 0.991922 0.990831 23.3707 0.953721
4643.88 0.987466 0.987972 23.4624 0.953776
4644.26 0.983819 0.98507 23.5244 0.953829
4644.64 0.981257 0.982266 23.585 0.953882
4645.02 0.979908 0.979695 23.6257 0.953935
4645.4 0.979233 0.97742 23.6519 0.953986
4645.78 0.978148 0.975454 23.6806 0.954037
4646.16 0.976219 0.973772 23.719 0.954087
4646.54 0.974449 0.972344 23.7575 0.954136
4646.92 0.973869 0.971199 23.7595 0.954185
4647.3 0.974444 0.970437 23.7546 0.954233
4647.68 0.975721 0.970163 23.7447 0.95428
4648.06 0.977285 0.970462 23.7291 0.954327
4648.44 0.978769 0.971353 23.7138 0.954373
4648.82 0.979927 0.972769 23.701 0.954419
4649.2 0.980863 0.9746 23.6881 0.954464
4649.58 0.98173 0.976751 23.6791 0.954508
4649.96 0.982554 0.979162 23.6714 0.954553
4650.34 0.983298 0.981824 23.656 0.954596
4650.72 0.984196 0.984731 23.6281 0.95464
4651.1 0.985851 0.987859 23.5995 0.954683
4651.48 0.988768 0.991158 23.5068 0.954725
4651.87 0.992951 0.994562 23.4146 0.954768
4652.25 0.99826 0.998009 23.2954 0.95481
4652.63 1.00426 1.00149 23.1622 0.954852
4653.01 1.01033 1.00502 23.0315 0.954893
4653.39 1.0159 1.00861 22.9053 0.954935
4653.77 1.02053 1.01223 22.7802 0.954976
4654.15 1.02393 1.01588 22.7314 0.955018
4654.53 1.02632 1.01955 22.6894 0.955059
4654.91 1.02811 1.02321 22.6579 0.9551
4655.29 1.02961 1.02687 22.6347 0.955142
4655.67 1.03098 1.03053 22.609 0.955183
4656.05 1.03246 1.03415 22.5725 0.955225
4656.43 1.03436 1.03764 22.536 0.955266
4656.82 1.03705 1.04095 22.4668 0.955308
4657.2 1.0412 1.04401 22.3912 0.95535
4657.58 1.0475 1.0468 22.2922 0.955392
4657.96 1.055 1.04935 22.167 0.955434
4658.34 1.06093 1.05168 22.0542 0.955476
4658.72 1.06336 1.05378 22.0387 0.955519
4659.1 1.06307 1.05557 22.0232 0.955562
4659.48 1.06128 1.05696 22.0416 0.955606
4659.87 1.05901 1.05778 22.0715 0.95565
4660.25 1.05709 1.05786 22.1073 0.955694
4660.63 1.0557 1.05707 22.1525 0.955739
4661.01 1.05405 1.05536 22.1979 0.955784
4661.39 1.0515 1.05274 22.246 0.95583
4661.77 1.04803 1.04925 22.2943 0.955877
4662.15 1.04377 1.04501 22.3898 0.955924
4662.53 1.0387 1.04012 22.5101 0.955971
4662.92 1.03266 1.03465 22.6363 0.95602
4663.3 1.02579 1.02872 22.7749 0.956069
4663.68 1.01863 1.02242 22.9149 0.956119
4664.06 1.01176 1.01587 23.0438 0.956169
4664.44 1.00571 1.00921 23.1731 0.95622
4664.82 1.0009 1.00259 23.2735 0.956272
4665.21 0.996514 0.996156 23.3534 0.956325
4665.59 0.990729 0.990087 23.4576 0.956379
4665.97 0.982935 0.984541 23.6437 0.956434
4666.35 0.975052 0.979653 23.832 0.95649
4666.73 0.969016 0.975506 23.9342 0.956546
4667.11 0.965048 0.972137 24.024 0.956604
4667.5 0.962726 0.969538 24.087 0.956663
4667.88 0.961418 0.967672 24.1243 0.956723
4668.26 0.960289 0.966517 24.164 0.956784
4668.64 0.95914 0.966076 24.2158 0.956846
4669.02 0.959384 0.96638 24.2677 0.956909
4669.41 0.96232 0.967439 24.2222 0.956974
4669.79 0.966577 0.96924 24.1528 0.95704
4670.17 0.969651 0.971742 24.0933 0.957107
4670.55 0.970861 0.974865 24.046 0.957175
4670.93 0.971629 0.978521 23.9959 0.957245
4671.32 0.973314 0.98262 23.9171 0.957316
4671.7 0.976717 0.987064 23.8387 0.957388
4672.08 0.982338 0.99173 23.7243 0.957462
4672.46 0.988859 0.996457 23.5977 0.957538
4672.85 0.994037 1.00107 23.4931 0.957615
4673.23 0.99751 1.00541 23.4228 0.957693
4673.61 1.0015 1.00937 23.3505 0.957773
4673.99 1.00757 1.01287 23.1969 0.957855
4674.38 1.01428 1.01588 23.0448 0.957938
4674.76 1.01953 1.01838 22.9571 0.958023
4675.14 1.02231 1.02035 22.9003 0.95811
4675.52 1.0223 1.02177 22.879 0.958198
4675.91 1.02001 1.02262 22.9326 0.958288
4676.29 1.01729 1.02293 22.9865 0.95838
4676.67 1.0158 1.02274 23.0109 0.958474
4677.05 1.01572 1.02215 23.0344 0.958569
4677.44 1.0168 1.0213 23.0126 0.958667
4677.82 1.01842 1.02031 22.9627 0.958767
4678.2 1.01965 1.01933 22.9259 0.958868
4678.58 1.01986 1.01843 22.9249 0.958971
4678.97 1.01899 1.01764 22.9239 0.959077
4679.35 1.01714 1.01693 22.9609 0.959184
4679.73 1.01482 1.01623 23.0017 0.959294
4680.12 1.01268 1.01548 23.0372 0.959406
4680.5 1.01097 1.01464 23.0687 0.95952
4680.88 1.00958 1.01375 23.1034 0.959636
4681.26 1.00843 1.01286 23.1499 0.959754
4681.65 1.00745 1.0121 23.1965 0.959875
4682.03 1.00661 1.01157 23.2167 0.959997
4682.41 1.0062 1.01136 23.2328 0.960123
4682.8 1.00658 1.01154 23.2337 0.96025
4683.18 1.00796 1.01213 23.2205 0.96038
4683.56 1.01035 1.01308 23.2035 0.960512
4683.95 1.01342 1.01431 23.1675 0.960647
4684.33 1.016 1.01573 23.1316 0.960785
4684.71 1.01702 1.01722 23.12 0.960924
4685.1 1.01706 1.0187 23.1138 0.961067
4685.48 1.01733 1.02008 23.0906 0.961212
4685.86 1.01845 1.0213 23.0482 0.961359
4686.25 1.0203 1.02233 23.0052 0.961509
4686.63 1.0227 1.02316 22.9577 0.961662
4687.01 1.0252 1.0238 22.9103 0.961818
4687.4 1.02734 1.02427 22.8771 0.961976
4687.78 1.02891 1.02459 22.8481 0.962137
4688.16 1.02976 1.02479 22.8376 0.962301
4688.55 1.02995 1.0249 22.8518 0.962468
4688.93 1.02976 1.02497 22.864 0.962638
4689.31 1.02947 1.02506 22.8544 0.96281
4689.7 1.0293 1.02526 22.8448 0.962986
4690.08 1.02942 1.02562 22.8179 0.963164
4690.47 1.02987 1.02612 22.7848 0.963345
4690.85 1.03059 1.02675 22.7474 0.96353
4691.23 1.03144 1.02743 22.7032 0.963718
4691.62 1.03219 1.02805 22.6612 0.963908
4692.0 1.03264 1.02856 22.6612 0.964102
4692.39 1.03273 1.02893 22.6612 0.964299
4692.77 1.03245 1.02917 22.6717 0.964499
4693.15 1.03208 1.02931 22.6867 0.964703
4693.54 1.03208 1.02941 22.6967 0.964909
4693.92 1.03257 1.02949 22.698 0.965119
4694.31 1.03314 1.02953 22.6993 0.965333
4694.69 1.03334 1.02946 22.7089 0.965549
4695.07 1.03247 1.02921 22.7185 0.965769
4695.46 1.0299 1.02868 22.7851 0.965993
4695.84 1.02632 1.0278 22.8804 0.96622
4696.23 1.02325 1.02657 22.9535 0.96645
4696.61 1.02139 1.02499 22.9801 0.966684
4696.99 1.02015 1.02311 23.0067 0.96692
4697.38 1.01888 1.021 23.0284 0.96716
4697.76 1.01707 1.01872 23.0502 0.967403
4698.15 1.0143 1.01633 23.0889 0.96765
4698.53 1.0105 1.01386 23.1373 0.967899
4698.92 1.0059 1.01134 23.2056 0.968151
4699.3 1.00114 1.00882 23.3203 0.968406
4699.69 0.997603 1.00636 23.4359 0.968664
4700.07 0.996328 1.00398 23.4669 0.968924
4700.45 0.996457 1.00171 23.4946 0.969188
4700.84 0.996659 0.999584 23.5116 0.969453
4701.22 0.996358 0.997618 23.5219 0.969722
4701.61 0.995532 0.995856 23.5312 0.969993
4701.99 0.994331 0.99435 23.5379 0.970266
4702.38 0.993201 0.993156 23.5446 0.970542
4702.76 0.9925 0.992301 23.5584 0.97082
4703.15 0.992024 0.991778 23.5726 0.971101
4703.53 0.991457 0.991555 23.572 0.971383
4703.92 0.991312 0.991589 23.5615 0.971668
4704.3 0.992729 0.991837 23.5303 0.971955
4704.69 0.996085 0.992291 23.4419 0.972244
4705.07 1.00031 0.992971 23.354 0.972535
4705.46 1.00423 0.993914 23.2852 0.972828
4705.84 1.00705 0.995172 23.2181 0.973122
4706.23 1.00812 0.996767 23.1991 0.973419
4706.61 1.00807 0.998659 23.2138 0.973717
4707.0 1.00852 1.00076 23.2127 0.974017
4707.38 1.01022 1.00298 23.1648 0.974318
4707.77 1.01221 1.00523 23.1171 0.974621
4708.15 1.01355 1.00745 23.1016 0.974926
4708.54 1.01436 1.00966 23.0892 0.975232
4708.92 1.01509 1.01189 23.0621 0.975539
4709.31 1.0162 1.01415 23.0242 0.975847
4709.69 1.01811 1.01646 22.9748 0.976157
4710.08 1.02106 1.01883 22.8895 0.976468
4710.46 1.0249 1.02129 22.8046 0.97678
4710.85 1.02932 1.02386 22.7278 0.977093
4711.23 1.03348 1.02654 22.6521 0.977408
4711.62 1.03637 1.02933 22.5993 0.977723
4712.01 1.03798 1.03217 22.5636 0.978039
4712.39 1.03908 1.03503 22.524 0.978355
4712.78 1.0404 1.03795 22.4721 0.978673
4713.16 1.04249 1.04104 22.4203 0.978991
4713.55 1.04581 1.04444 22.3459 0.97931
4713.93 1.05024 1.04829 22.2696 0.97963
4714.32 1.05549 1.05263 22.2039 0.97995
4714.71 1.06106 1.05742 22.1463 0.98027
4715.09 1.0663 1.06251 22.0765 0.980591
4715.48 1.07094 1.06774 21.9671 0.980912
4715.86 1.0755 1.07296 21.8585 0.981233
4716.25 1.08049 1.07807 21.7444 0.981555
4716.63 1.08589 1.08305 21.6305 0.981877
4717.02 1.09146 1.08795 21.5246 0.982199
4717.41 1.09672 1.09282 21.4248 0.982521
4717.79 1.10093 1.09772 21.335 0.982843
4718.18 1.10411 1.10269 21.275 0.983164
4718.56 1.10776 1.10768 21.2153 0.983486
4718.95 1.11314 1.11263 21.1508 0.983808
4719.34 1.11933 1.1174 21.0861 0.984129
4719.72 1.12472 1.12185 21.03 0.98445
4720.11 1.12872 1.12584 20.9803 0.98477
4720.5 1.1315 1.12932 20.9326 0.98509
4720.88 1.13355 1.13223 20.891 0.985409
4721.27 1.13583 1.13454 20.8496 0.985728
4721.65 1.13892 1.1362 20.7972 0.986047
4722.04 1.14107 1.13717 20.7439 0.986364
4722.43 1.13994 1.13738 20.7614 0.986681
4722.81 1.136 1.13681 20.8289 0.986997
4723.2 1.1319 1.13546 20.8859 0.987312
4723.59 1.12936 1.13339 20.9118 0.987626
4723.97 1.12827 1.13069 20.9377 0.98794
4724.36 1.12812 1.12744 20.9555 0.988252
4724.75 1.12754 1.12375 20.9728 0.988563
4725.13 1.12499 1.11971 21.0307 0.988873
4725.52 1.12022 1.11539 21.1162 0.989181
4725.91 1.11398 1.11083 21.2183 0.989488
4726.29 1.10694 1.10609 21.3647 0.989794
4726.68 1.09951 1.10123 21.5126 0.990099
4727.07 1.09213 1.09632 21.6274 0.990402
4727.45 1.08528 1.09143 21.7412 0.990703
4727.84 1.07947 1.08662 21.8288 0.991003
4728.23 1.07496 1.08197 21.9002 0.991301
4728.61 1.07181 1.07753 21.9584 0.991598
4729.0 1.06982 1.07342 21.9841 0.991893
4729.39 1.06827 1.06978 22.0097 0.992185
4729.77 1.06653 1.06677 22.0839 0.992476
4730.16 1.06437 1.0645 22.1602 0.992765
4730.55 1.06169 1.06298 22.2226 0.993052
4730.93 1.0587 1.06217 22.2772 0.993337
4731.32 1.05578 1.06194 22.3268 0.99362
4731.71 1.05334 1.06218 22.3649 0.9939
4732.1 1.05178 1.06287 22.4031 0.994179
4732.48 1.05146 1.06402 22.4296 0.994455
4732.87 1.0524 1.06565 22.456 0.994728
4733.26 1.05453 1.0678 22.4341 0.994999
4733.64 1.05766 1.07037 22.3879 0.995268
4734.03 1.0615 1.07325 22.3267 0.995534
4734.42 1.06579 1.07628 22.2365 0.995797
4734.81 1.07028 1.07937 22.1468 0.996058
4735.19 1.07477 1.08246 22.0568 0.996316
4735.58 1.0791 1.08555 21.9673 0.996571
4735.97 1.08315 1.08865 21.8997 0.996823
4736.36 1.08689 1.09174 21.8417 0.997072
4736.74 1.09033 1.09476 21.7873 0.997318
4737.13 1.09352 1.09766 21.7385 0.997562
4737.52 1.09656 1.10046 21.6893 0.997802
4737.91 1.09958 1.1032 21.6276 0.998039
4738.29 1.10281 1.10595 21.5662 0.998272
4738.68 1.10644 1.10876 21.5045 0.998503
4739.07 1.11046 1.11165 21.4429 0.99873
4739.46 1.11477 1.11455 21.3851 0.998953
4739.85 1.11904 1.11743 21.3329 0.999173
4740.23 1.12272 1.12023 21.2837 0.99939
4740.62 1.12542 1.12293 21.2643 0.999603
4741.01 1.12731 1.12552 21.2451 0.999812
4741.4 1.1287 1.12797 21.2132 1.00002
4741.79 1.13004 1.13027 21.1775 1.00022
4742.17 1.13187 1.13241 21.1323 1.00042
4742.56 1.13447 1.13441 21.0754 1.00061
4742.95 1.13786 1.13629 21.0165 1.0008
4743.34 1.14184 1.13813 20.9432 1.00099
4743.73 1.14567 1.14 20.8702 1.00117
4744.11 1.14864 1.14192 20.8364 1.00135
4744.5 1.15085 1.1439 20.8119 1.00152
4744.89 1.15272 1.14589 20.7894 1.00169
4745.28 1.15436 1.14781 20.7692 1.00186
4745.67 1.1556 1.1496 20.75 1.00202
4746.05 1.15631 1.15118 20.7356 1.00217
4746.44 1.15659 1.15253 20.7212 1.00232
4746.83 1.15663 1.15361 20.712 1.00247
4747.22 1.15688 1.15443 20.7038 1.00262
4747.61 1.15788 1.15494 20.697 1.00276
4748.0 1.15953 1.15516 20.6914 1.00289
4748.39 1.16108 1.1551 20.6876 1.00302
4748.77 1.16196 1.15478 20.6905 1.00315
4749.16 1.16189 1.15422 20.6934 1.00327
4749.55 1.16071 1.15344 20.7122 1.00339
4749.94 1.15851 1.15238 20.7328 1.00351
4750.33 1.15551 1.15097 20.7652 1.00362
4750.72 1.15208 1.14915 20.8062 1.00372
4751.11 1.14876 1.14695 20.8507 1.00383
4751.49 1.14577 1.14445 20.9048 1.00393
4751.88 1.14287 1.14185 20.9591 1.00402
4752.27 1.13987 1.13936 21.0141 1.00412
4752.66 1.13718 1.13711 21.0694 1.0042
4753.05 1.13537 1.13512 21.1049 1.00429
4753.44 1.13465 1.13332 21.1292 1.00437
4753.83 1.13497 1.13155 21.1424 1.00445
4754.22 1.13604 1.12966 21.1326 1.00452
4754.61 1.13712 1.12767 21.123 1.00459
4754.99 1.13738 1.12562 21.1247 1.00466
4755.38 1.13567 1.12364 21.1264 1.00472
4755.77 1.13101 1.12184 21.2038 1.00478
4756.16 1.1248 1.12029 21.3142 1.00483
4756.55 1.11984 1.11899 21.4011 1.00489
4756.94 1.11773 1.11791 21.4498 1.00494
4757.33 1.11836 1.11697 21.4929 1.00498
4757.72 1.12087 1.11611 21.4664 1.00502
4758.11 1.12209 1.11522 21.4399 1.00506
4758.5 1.11899 1.11419 21.5198 1.0051
4758.89 1.11299 1.11293 21.6336 1.00513
4759.28 1.10769 1.11138 21.7208 1.00516
4759.67 1.10459 1.10951 21.7746 1.00519
4760.05 1.10283 1.10735 21.8254 1.00521
4760.44 1.10146 1.10498 21.8557 1.00523
4760.83 1.09969 1.10245 21.8862 1.00525
4761.22 1.09688 1.09978 21.9187 1.00526
4761.61 1.09303 1.09701 21.9517 1.00527
4762.0 1.08847 1.09414 22.023 1.00528
4762.39 1.08404 1.09118 22.1303 1.00528
4762.78 1.08106 1.0882 22.2218 1.00528
4763.17 1.08007 1.08527 22.2511 1.00528
4763.56 1.07992 1.08249 22.2805 1.00528
4763.95 1.07936 1.07998 22.2977 1.00527
4764.34 1.078 1.07779 22.3135 1.00526
4764.73 1.07581 1.07599 22.3289 1.00525
4765.12 1.07355 1.07458 22.3439 1.00524
4765.51 1.07266 1.07358 22.3509 1.00522
4765.9 1.07342 1.07298 22.3375 1.0052
4766.29 1.07412 1.0728 22.3241 1.00518
4766.68 1.07334 1.07307 22.3604 1.00515
4767.07 1.07187 1.07386 22.398 1.00512
4767.46 1.0711 1.0752 22.3973 1.00509
4767.85 1.07185 1.07706 22.3774 1.00506
4768.24 1.07461 1.07937 22.3318 1.00502
4768.63 1.0793 1.08205 22.2406 1.00499
4769.02 1.08504 1.08503 22.15 1.00495
4769.41 1.09086 1.0883 22.062 1.0049
4769.8 1.09565 1.09189 21.9745 1.00486
4770.19 1.09847 1.09578 21.9203 1.00481
4770.58 1.10024 1.09987 21.8774 1.00476
4770.97 1.10276 1.10405 21.8286 1.00471
4771.36 1.10692 1.10817 21.7722 1.00466
4771.75 1.11251 1.11215 21.7135 1.0046
4772.14 1.11871 1.11598 21.6392 1.00454
4772.53 1.12328 1.11968 21.5651 1.00448
4772.92 1.12431 1.12328 21.5201 1.00442
4773.31 1.124 1.12679 21.4811 1.00436
4773.71 1.12607 1.1302 21.4296 1.00429
4774.1 1.13115 1.13346 21.367 1.00422
4774.49 1.1369 1.1365 21.3063 1.00415
4774.88 1.14147 1.13929 21.2517 1.00408
4775.27 1.14408 1.14177 21.1973 1.004
4775.66 1.14448 1.1439 21.161 1.00393
4776.05 1.14418 1.14565 21.1264 1.00385
4776.44 1.1451 1.147 21.1123 1.00377
4776.83 1.14691 1.14796 21.1111 1.00369
4777.22 1.1476 1.14853 21.1248 1.00361
4777.61 1.14632 1.14873 21.1715 1.00352
4778.0 1.14413 1.14854 21.2183 1.00344
4778.39 1.14212 1.14796 21.2528 1.00335
4778.79 1.14063 1.14701 21.2875 1.00326
4779.18 1.13974 1.14569 21.3089 1.00317
4779.57 1.13863 1.14403 21.3247 1.00307
4779.96 1.13603 1.14204 21.3618 1.00298
4780.35 1.13204 1.13973 21.4302 1.00289
4780.74 1.1286 1.13709 21.4954 1.00279
4781.13 1.12697 1.13417 21.5302 1.00269
4781.52 1.12603 1.13104 21.565 1.00259
4781.91 1.12435 1.12783 21.6156 1.00249
4782.31 1.12133 1.12471 21.6703 1.00239
4782.7 1.1168 1.12181 21.739 1.00228
4783.09 1.11156 1.11917 21.8217 1.00218
4783.48 1.10739 1.1168 21.8958 1.00207
4783.87 1.10539 1.11465 21.9341 1.00197
4784.26 1.10508 1.11269 21.9726 1.00186
4784.65 1.10571 1.11089 21.9792 1.00175
4785.05 1.10639 1.10926 21.9824 1.00164
4785.44 1.10615 1.10782 21.9994 1.00153
4785.83 1.10463 1.10659 22.0254 1.00141
4786.22 1.10185 1.10562 22.0618 1.0013
4786.61 1.09833 1.10496 22.1218 1.00119
4787.0 1.09532 1.10467 22.1816 1.00107
4787.39 1.09405 1.10482 22.1838 1.00095
4787.79 1.09546 1.1055 22.186 1.00084
4788.18 1.10021 1.10676 22.1211 1.00072
4788.57 1.10715 1.10861 22.0293 1.0006
4788.96 1.11415 1.11101 21.9389 1.00048
4789.35 1.11964 1.11385 21.8504 1.00036
4789.75 1.12289 1.11701 21.767 1.00024
4790.14 1.12386 1.12037 21.7193 1.00012
4790.53 1.12452 1.12389 21.6717 0.999998
4790.92 1.12683 1.1276 21.6235 0.999875
4791.31 1.13058 1.13151 21.5752 0.999752
4791.71 1.13464 1.13563 21.5368 0.999628
4792.1 1.13843 1.13991 21.5074 0.999504
4792.49 1.14191 1.14419 21.4754 0.99938
4792.88 1.14512 1.14833 21.435 0.999255
4793.27 1.14828 1.15216 21.3946 0.99913
4793.67 1.15161 1.15562 21.3319 0.999004
4794.06 1.15543 1.15865 21.2678 0.998878
4794.45 1.15999 1.1613 21.2115 0.998752
4794.84 1.16473 1.1636 21.1595 0.998625
4795.24 1.16854 1.16557 21.1147 0.998498
4795.63 1.17087 1.16721 21.0832 0.998371
4796.02 1.17214 1.16848 21.0517 0.998244
4796.41 1.17282 1.16936 21.0187 0.998117
4796.8 1.17341 1.16983 20.9858 0.99799
4797.2 1.17433 1.16991 20.944 0.997862
4797.59 1.17553 1.16963 20.8994 0.997735
4797.98 1.17671 1.16908 20.8842 0.997607
4798.37 1.17727 1.16836 20.9029 0.99748
4798.77 1.17629 1.16757 20.9319 0.997352
4799.16 1.17344 1.16681 21.0106 0.997225
4799.55 1.16973 1.16611 21.0897 0.997098
4799.95 1.16635 1.16541 21.1446 0.996971
4800.34 1.16421 1.16465 21.1963 0.996844
4800.73 1.16401 1.16378 21.1917 0.996718
4801.12 1.1652 1.1628 21.1477 0.996592
4801.52 1.16625 1.16175 21.1271 0.996466
4801.91 1.16616 1.16074 21.1621 0.99634
4802.3 1.16498 1.1598 21.1974 0.996215
4802.7 1.1629 1.15889 21.2559 0.99609
4803.09 1.16046 1.158 21.3147 0.995965
4803.48 1.15822 1.15706 21.3668 0.995841
4803.87 1.1566 1.15606 21.4164 0.995717
4804.27 1.15592 1.15501 21.4477 0.995594
4804.66 1.15597 1.15392 21.454 0.995472
4805.05 1.15589 1.15279 21.4588 0.99535
4805.45 1.15515 1.15158 21.4537 0.995228
4805.84 1.15419 1.15028 21.4486 0.995108
4806.23 1.15354 1.1489 21.438 0.994987
4806.63 1.15333 1.14753 21.4265 0.994868
4807.02 1.15348 1.14626 21.4136 0.994749
4807.41 1.15382 1.14519 21.3997 0.994632
4807.81 1.15404 1.14437 21.3864 0.994515
4808.2 1.15393 1.14384 21.3749 0.994398
4808.59 1.15339 1.14358 21.3634 0.994283
4808.99 1.15244 1.14355 21.3829 0.994168
4809.38 1.15137 1.14373 21.403 0.994055
4809.77 1.15058 1.14408 21.4184 0.993942
4810.17 1.15018 1.1446 21.4316 0.993831
4810.56 1.15017 1.14529 21.4439 0.99372
4810.95 1.15044 1.14616 21.4547 0.99361
4811.35 1.15083 1.14724 21.4666 0.993502
4811.74 1.15131 1.14853 21.4864 0.993395
4812.14 1.15227 1.15006 21.5062 0.993288
4812.53 1.15404 1.15179 21.4818 0.993183
4812.92 1.15626 1.15368 21.4487 0.99308
4813.32 1.15834 1.15568 21.4167 0.992977
4813.71 1.16 1.15773 21.3856 0.992876
4814.1 1.1613 1.15979 21.3563 0.992776
4814.5 1.16243 1.16187 21.3314 0.992677
4814.89 1.16379 1.16396 21.3066 0.99258
4815.29 1.16568 1.16608 21.2848 0.992484
4815.68 1.1679 1.16821 21.2631 0.99239
4816.07 1.17008 1.17033 21.2649 0.992297
4816.47 1.17199 1.17236 21.277 0.992205
4816.86 1.17344 1.1742 21.2777 0.992115
4817.26 1.17441 1.17573 21.2623 0.992027
4817.65 1.17514 1.17682 21.2435 0.99194
4818.04 1.17591 1.17739 21.202 0.991855
4818.44 1.17707 1.17741 21.1606 0.991771
4818.83 1.17883 1.17692 21.13 0.99169
4819.23 1.1803 1.176 21.1013 0.99161
4819.62 1.18021 1.17474 21.1142 0.991531
4820.02 1.17826 1.1732 21.1596 0.991455
4820.41 1.17503 1.17139 21.2123 0.99138
4820.8 1.1711 1.1693 21.2838 0.991307
4821.2 1.16705 1.1669 21.3557 0.991236
4821.59 1.16341 1.16418 21.4325 0.991167
4821.99 1.1604 1.16122 21.5097 0.9911
4822.38 1.15813 1.15813 21.5551 0.991035
4822.78 1.15612 1.15501 21.5878 0.990971
4823.17 1.15362 1.15197 21.6363 0.99091
4823.57 1.15044 1.14909 21.7057 0.990851
4823.96 1.14711 1.14641 21.7726 0.990794
4824.36 1.14414 1.14392 21.8246 0.99074
4824.75 1.1419 1.14161 21.8768 0.990687
4825.15 1.14064 1.13945 21.8958 0.990637
4825.54 1.14014 1.13742 21.9099 0.990588
4825.94 1.13998 1.1355 21.9121 0.990542
4826.33 1.13973 1.13371 21.9062 0.990499
4826.72 1.13897 1.13208 21.9168 0.990457
4827.12 1.13729 1.13064 21.9635 0.990418
4827.51 1.13443 1.12943 22.0125 0.990382
4827.91 1.13024 1.12847 22.1208 0.990348
4828.3 1.12503 1.12771 22.2298 0.990316
4828.7 1.11927 1.1271 22.3868 0.990287
4829.09 1.11391 1.12658 22.5607 0.99026
4829.49 1.11013 1.12606 22.656 0.990236
4829.89 1.10846 1.12554 22.6647 0.990214
4830.28 1.10877 1.12505 22.6637 0.990196
4830.68 1.1107 1.12466 22.625 0.990179
4831.07 1.11353 1.12441 22.5864 0.990166
4831.47 1.11649 1.12433 22.5319 0.990155
4831.86 1.11902 1.12442 22.4762 0.990147
4832.26 1.12065 1.1246 22.4262 0.990141
4832.65 1.12156 1.12483 22.3794 0.990139
4833.05 1.12241 1.12505 22.3442 0.990139
4833.44 1.12358 1.12522 22.3287 0.990142
4833.84 1.12515 1.12531 22.3111 0.990148
4834.23 1.12704 1.12535 22.275 0.990157
4834.63 1.12879 1.12535 22.239 0.990169
4835.03 1.12986 1.12533 22.2138 0.990184
4835.42 1.12985 1.12532 22.191 0.990202
4835.82 1.12846 1.12531 22.2043 0.990223
4836.21 1.12625 1.12523 22.2476 0.990247
4836.61 1.12453 1.12499 22.2893 0.990274
4837.0 1.12391 1.12448 22.3262 0.990305
4837.4 1.12369 1.12361 22.3632 0.990338
4837.8 1.12309 1.12236 22.4238 0.990375
4838.19 1.12171 1.12082 22.4848 0.990415
4838.59 1.11931 1.11921 22.5537 0.990458
4838.98 1.11603 1.1178 22.6258 0.990505
4839.38 1.11226 1.11678 22.6858 0.990555
4839.77 1.10913 1.1162 22.7308 0.990608
4840.17 1.10861 1.11603 22.7578 0.990665
4840.57 1.11143 1.11606 22.7014 0.990725
4840.96 1.11525 1.11613 22.6453 0.990789
4841.36 1.11761 1.11614 22.6327 0.990856
4841.75 1.11777 1.1161 22.6247 0.990927
4842.15 1.11567 1.11604 22.6487 0.991001
4842.55 1.11267 1.11605 22.6914 0.991079
4842.94 1.1111 1.11615 22.7136 0.991161
4843.34 1.11186 1.11638 22.6994 0.991246
4843.74 1.11386 1.11675 22.6822 0.991335
4844.13 1.11602 1.11733 22.6341 0.991428
4844.53 1.118 1.11817 22.586 0.991524
4844.92 1.11956 1.11928 22.5411 0.991624
4845.32 1.12063 1.12062 22.497 0.991728
4845.72 1.12121 1.12203 22.4631 0.991836
4846.11 1.1214 1.12328 22.4377 0.991948
4846.51 1.12143 1.12425 22.4226 0.992064
4846.91 1.12144 1.12491 22.4345 0.992183
4847.3 1.12141 1.12533 22.4465 0.992306
4847.7 1.12134 1.12566 22.4688 0.992434
4848.1 1.12138 1.12596 22.4912 0.992564
4848.49 1.12169 1.12614 22.5098 0.992699
4848.89 1.1222 1.12603 22.527 0.992837
4849.29 1.12276 1.12541 22.538 0.992979
4849.68 1.12293 1.12415 22.5419 0.993124
4850.08 1.12198 1.12224 22.5568 0.993272
4850.48 1.11948 1.11981 22.6148 0.993424
4850.87 1.11574 1.11703 22.6731 0.99358
4851.27 1.11116 1.1141 22.7535 0.993738
4851.67 1.10616 1.11108 22.8358 0.9939
4852.07 1.10114 1.10793 22.9261 0.994065
4852.46 1.0963 1.1045 23.0208 0.994233
4852.86 1.09176 1.10059 23.1157 0.994404
4853.26 1.0872 1.09605 23.2104 0.994578
4853.65 1.08178 1.09083 23.3144 0.994755
4854.05 1.07513 1.08503 23.476 0.994935
4854.45 1.06822 1.07882 23.6393 0.995118
4854.85 1.06211 1.07233 23.7631 0.995304
4855.24 1.05685 1.06569 23.8816 0.995492
4855.64 1.05213 1.05892 23.9872 0.995683
4856.04 1.04734 1.052 24.0845 0.995877
4856.43 1.04163 1.04493 24.1964 0.996073
4856.83 1.03483 1.0377 24.3367 0.996272
4857.23 1.0278 1.03036 24.4796 0.996473
4857.63 1.02123 1.02302 24.6413 0.996676
4858.02 1.01494 1.01576 24.8047 0.996882
4858.42 1.00867 1.00872 24.9603 0.99709
4858.82 1.00255 1.00206 25.1152 0.997301
4859.22 0.996897 0.995908 25.2555 0.997514
4859.61 0.992241 0.99041 25.3836 0.997728
4860.01 0.989248 0.985691 25.4887 0.997945
4860.41 0.987755 0.981804 25.533 0.998164
4860.81 0.986087 0.978773 25.5781 0.998385
4861.2 0.982978 0.976611 25.6618 0.998608
4861.6 0.979308 0.975296 25.7459 0.998832
4862.0 0.976415 0.974778 25.7818 0.999059
4862.4 0.975236 0.975025 25.802 0.999287
4862.8 0.976473 0.976 25.7727 0.999517
4863.19 0.980055 0.977661 25.6924 0.999748
4863.59 0.985132 0.979987 25.5964 0.999981
4863.99 0.990783 0.982977 25.4474 1.00022
4864.39 0.996027 0.986593 25.2997 1.00045
4864.79 1.00013 0.99074 25.2298 1.00069
4865.18 1.00347 0.99527 25.1627 1.00093
4865.58 1.00671 0.999935 25.1137 1.00117
4865.98 1.01029 1.00446 25.0721 1.00141
4866.38 1.01448 1.00866 25.0262 1.00165
4866.78 1.01851 1.01243 24.9749 1.0019
4867.17 1.02046 1.0158 24.9232 1.00214
4867.57 1.01974 1.01885 24.8694 1.00239
4867.97 1.01904 1.02167 24.8158 1.00263
4868.37 1.02093 1.02424 24.7259 1.00288
4868.77 1.02514 1.02646 24.6336 1.00313
4869.17 1.0305 1.02823 24.5463 1.00338
4869.56 1.03531 1.0295 24.4617 1.00363
4869.96 1.03763 1.0303 24.409 1.00388
4870.36 1.03739 1.03081 24.4017 1.00413
4870.76 1.03693 1.03128 24.3888 1.00439
4871.16 1.03787 1.03196 24.3443 1.00464
4871.56 1.03961 1.03308 24.2998 1.00489
4871.96 1.04137 1.03473 24.2487 1.00515
4872.35 1.04321 1.03687 24.1968 1.0054
4872.75 1.04554 1.0394 24.1314 1.00565
4873.15 1.04908 1.04222 24.0583 1.00591
4873.55 1.05471 1.04531 23.9553 1.00616
4873.95 1.06198 1.04872 23.8034 1.00642
4874.35 1.06847 1.05252 23.6634 1.00668
4874.75 1.07262 1.05676 23.6013 1.00693
4875.15 1.07562 1.06138 23.5394 1.00719
4875.54 1.07899 1.06624 23.4644 1.00744
4875.94 1.08331 1.07118 23.3877 1.0077
4876.34 1.08878 1.07617 23.292 1.00795
4876.74 1.09434 1.08125 23.1843 1.00821
4877.14 1.09806 1.08647 23.1036 1.00846
4877.54 1.0996 1.09184 23.0716 1.00872
4877.94 1.10097 1.09722 23.0359 1.00897
4878.34 1.10376 1.10234 22.9647 1.00922
4878.74 1.10775 1.10687 22.8937 1.00948
4879.14 1.11232 1.11063 22.8337 1.00973
4879.53 1.11661 1.11353 22.7759 1.00998
4879.93 1.11968 1.11562 22.7456 1.01023
4880.33 1.12095 1.11702 22.7346 1.01048
4880.73 1.12005 1.11784 22.7458 1.01073
4881.13 1.11743 1.11811 22.8017 1.01098
4881.53 1.11468 1.11784 22.8554 1.01123
4881.93 1.11301 1.11701 22.8816 1.01148
4882.33 1.1122 1.11563 22.9078 1.01172
4882.73 1.11165 1.11377 22.932 1.01197
4883.13 1.11046 1.11152 22.9558 1.01221
4883.53 1.10769 1.10895 23.0027 1.01246
4883.93 1.10372 1.10615 23.067 1.0127
4884.33 1.10006 1.10313 23.1251 1.01294
4884.73 1.09736 1.09983 23.1694 1.01318
4885.13 1.09485 1.09619 23.2163 1.01342
4885.53 1.09183 1.09222 23.2967 1.01365
4885.93 1.08817 1.088 23.3775 1.01389
4886.33 1.0839 1.08374 23.4767 1.01412
4886.73 1.07949 1.07977 23.5806 1.01435
4887.13 1.0756 1.0764 23.6539 1.01458
4887.53 1.07285 1.07386 23.7033 1.01481
4887.93 1.07179 1.07227 23.738 1.01504
4888.33 1.07236 1.07155 23.7406 1.01526
4888.73 1.07345 1.07162 23.7417 1.01549
4889.13 1.07415 1.0724 23.7221 1.01571
4889.53 1.07458 1.07388 23.7026 1.01593
4889.93 1.07529 1.07616 23.6607 1.01615
4890.33 1.0784 1.07931 23.6138 1.01636
4890.73 1.08648 1.08336 23.4604 1.01658
4891.13 1.09766 1.08822 23.2279 1.01679
4891.53 1.10643 1.0938 23.0521 1.017
4891.93 1.11016 1.09995 22.9929 1.0172
4892.33 1.11114 1.10662 22.9346 1.01741
4892.73 1.11214 1.11377 22.8846 1.01761
4893.13 1.11596 1.1214 22.8347 1.01781
4893.53 1.12486 1.12946 22.6822 1.01801
4893.93 1.13698 1.13792 22.5089 1.0182
4894.33 1.14879 1.1466 22.3266 1.01839
4894.73 1.15859 1.15528 22.1385 1.01858
4895.13 1.16614 1.16368 21.9719 1.01877
4895.53 1.1717 1.17157 21.8469 1.01895
4895.93 1.1763 1.17873 21.7249 1.01913
4896.33 1.18103 1.18508 21.6286 1.01931
4896.73 1.18702 1.1906 21.5328 1.01949
4897.13 1.19503 1.19529 21.3996 1.01966
4897.53 1.20303 1.1992 21.2599 1.01983
4897.93 1.20804 1.2024 21.2119 1.01999
4898.33 1.20947 1.20491 21.2284 1.02016
4898.74 1.20863 1.20675 21.2477 1.02032
4899.14 1.20664 1.20795 21.2723 1.02047
4899.54 1.20418 1.20847 21.296 1.02063
4899.94 1.20163 1.20833 21.3107 1.02078
4900.34 1.19857 1.20758 21.3255 1.02093
4900.74 1.19461 1.20631 21.4058 1.02107
4901.14 1.19061 1.20467 21.4983 1.02122
4901.54 1.18784 1.20287 21.5506 1.02136
4901.94 1.18654 1.20107 21.5763 1.02149
4902.34 1.18615 1.19941 21.5963 1.02163
4902.75 1.18606 1.19796 21.606 1.02176
4903.15 1.18566 1.19674 21.6172 1.02189
4903.55 1.18456 1.19574 21.6395 1.02202
4903.95 1.18297 1.19489 21.6618 1.02215
4904.35 1.18117 1.19408 21.7093 1.02227
4904.75 1.17925 1.19318 21.7606 1.02239
4905.15 1.1772 1.19203 21.7994 1.02251
4905.55 1.17519 1.19054 21.8308 1.02263
4905.96 1.17344 1.18868 21.8592 1.02274
4906.36 1.17215 1.18659 21.8826 1.02285
4906.76 1.17142 1.18446 21.9077 1.02296
4907.16 1.17103 1.18249 21.9421 1.02307
4907.56 1.16995 1.18083 21.9766 1.02318
4907.96 1.16738 1.17951 22.0152 1.02328
4908.36 1.16428 1.17839 22.0543 1.02339
4908.77 1.16217 1.17732 22.0644 1.02349
4909.17 1.16155 1.17622 22.0597 1.02359
4909.57 1.16225 1.17503 22.0433 1.02368
4909.97 1.16344 1.1738 22.0108 1.02378
4910.37 1.16349 1.1726 21.9952 1.02387
4910.77 1.16159 1.17149 22.0556 1.02397
4911.18 1.15902 1.17047 22.1163 1.02406
4911.58 1.15712 1.16947 22.1431 1.02415
4911.98 1.15609 1.16842 22.1679 1.02424
4912.38 1.15578 1.16719 22.1745 1.02432
4912.78 1.15581 1.16566 22.1734 1.02441
4913.19 1.1557 1.16374 22.1625 1.02449
4913.59 1.15492 1.16137 22.1403 1.02458
4913.99 1.1529 1.15847 22.1457 1.02466
4914.39 1.14948 1.15505 22.2471 1.02474
4914.79 1.14529 1.15108 22.3493 1.02482
4915.2 1.14098 1.14661 22.4426 1.0249
4915.6 1.1367 1.14173 22.5363 1.02498
4916.0 1.13248 1.13654 22.627 1.02505
4916.4 1.12822 1.13112 22.717 1.02513
4916.81 1.12373 1.12557 22.8084 1.0252
4917.21 1.11908 1.1199 22.9014 1.02528
4917.61 1.11459 1.11409 22.9924 1.02535
4918.01 1.11038 1.10815 23.0771 1.02542
4918.41 1.1062 1.10214 23.1626 1.0255
4918.82 1.10184 1.09619 23.256 1.02557
4919.22 1.09728 1.09055 23.3499 1.02564
4919.62 1.0926 1.08548 23.4453 1.02571
4920.02 1.08808 1.08126 23.5416 1.02578
4920.43 1.08409 1.07809 23.6129 1.02585
4920.83 1.08105 1.07607 23.6648 1.02592
4921.23 1.0794 1.07524 23.6876 1.02599
4921.63 1.07945 1.07555 23.6506 1.02606
4922.04 1.08134 1.07693 23.608 1.02613
4922.44 1.08511 1.07935 23.5113 1.0262
4922.84 1.09052 1.08282 23.4151 1.02627
4923.25 1.09723 1.08736 23.276 1.02633
4923.65 1.10459 1.09294 23.1311 1.0264
4924.05 1.1119 1.0995 22.9972 1.02647
4924.45 1.11899 1.10683 22.8702 1.02654
4924.86 1.1261 1.11472 22.7378 1.02661
4925.26 1.13337 1.12294 22.5965 1.02668
4925.66 1.14074 1.1313 22.4569 1.02675
4926.07 1.14812 1.13969 22.3207 1.02682
4926.47 1.15533 1.14801 22.1857 1.02689
4926.87 1.16219 1.15612 22.0837 1.02696
4927.28 1.16847 1.16383 21.9851 1.02703
4927.68 1.17398 1.17096 21.9036 1.0271
4928.08 1.17891 1.17735 21.83 1.02717
4928.49 1.18362 1.18297 21.7553 1.02724
4928.89 1.18832 1.18786 21.6793 1.02731
4929.29 1.19301 1.19211 21.6036 1.02739
4929.7 1.19755 1.19574 21.5278 1.02746
4930.1 1.20153 1.1987 21.4524 1.02754
4930.5 1.20456 1.20086 21.4197 1.02761
4930.91 1.20634 1.20207 21.3873 1.02769
4931.31 1.20668 1.20227 21.3723 1.02777
4931.71 1.20589 1.2015 21.3625 1.02784
4932.12 1.20447 1.19988 21.3651 1.02792
4932.52 1.2028 1.19755 21.3784 1.028
4932.92 1.20103 1.1946 21.4 1.02809
4933.33 1.19885 1.19106 21.4404 1.02817
4933.73 1.19513 1.18693 21.4871 1.02825
4934.13 1.18923 1.18227 21.6112 1.02834
4934.54 1.18244 1.17725 21.7364 1.02842
4934.94 1.17623 1.17211 21.8426 1.02851
4935.35 1.17095 1.16716 21.946 1.0286
4935.75 1.16651 1.16268 22.0354 1.02869
4936.15 1.16245 1.15885 22.1161 1.02878
4936.56 1.15809 1.15578 22.188 1.02888
4936.96 1.15385 1.15352 22.2457 1.02897
4937.36 1.15165 1.15207 22.2925 1.02907
4937.77 1.1525 1.15141 22.2812 1.02917
4938.17 1.15493 1.15145 22.27 1.02927
4938.58 1.15724 1.15205 22.2555 1.02937
4938.98 1.15868 1.15312 22.2409 1.02947
4939.38 1.15892 1.15454 22.2297 1.02958
4939.79 1.15891 1.15634 22.22 1.02968
4940.19 1.16035 1.15868 22.1697 1.02979
4940.6 1.16399 1.16175 22.0753 1.0299
4941.0 1.16961 1.16572 21.9721 1.03002
4941.41 1.1768 1.17062 21.8419 1.03013
4941.81 1.18479 1.17629 21.7126 1.03025
4942.21 1.19284 1.18241 21.5752 1.03037
4942.62 1.20038 1.18868 21.439 1.03049
4943.02 1.20703 1.19485 21.3157 1.03062
4943.43 1.21349 1.20083 21.1962 1.03074
4943.83 1.22088 1.20664 21.0715 1.03087
4944.24 1.22887 1.21229 20.9433 1.031
4944.64 1.23594 1.2178 20.8373 1.03114
4945.05 1.2411 1.22309 20.7712 1.03127
4945.45 1.24418 1.22804 20.7123 1.03141
4945.85 1.24537 1.23255 20.7018 1.03155
4946.26 1.24559 1.23656 20.6914 1.0317
4946.66 1.24583 1.24007 20.7025 1.03185
4947.07 1.24658 1.24307 20.716 1.032
4947.47 1.24816 1.24555 20.6983 1.03215
4947.88 1.25043 1.24747 20.6659 1.0323
4948.28 1.25299 1.2488 20.6307 1.03246
4948.69 1.25544 1.24958 20.5921 1.03262
4949.09 1.25739 1.24987 20.5562 1.03279
4949.5 1.25865 1.24975 20.5288 1.03296
4949.9 1.25935 1.24927 20.502 1.03313
4950.31 1.25952 1.24842 20.5306 1.0333
4950.71 1.2584 1.24707 20.5593 1.03348
4951.12 1.25517 1.24504 20.6159 1.03366
4951.52 1.24998 1.24217 20.6804 1.03384
4951.93 1.24346 1.23832 20.7611 1.03402
4952.33 1.23644 1.23351 20.8547 1.03421
4952.74 1.22998 1.2279 20.9563 1.0344
4953.14 1.2246 1.22173 21.0731 1.0346
4953.55 1.22011 1.21529 21.1862 1.03479
4953.95 1.21615 1.20881 21.2662 1.03499
4954.36 1.21217 1.20242 21.3467 1.03519
4954.77 1.20763 1.19618 21.4252 1.0354
4955.17 1.20234 1.19014 21.504 1.0356
4955.58 1.19624 1.18441 21.5879 1.03581
4955.98 1.1897 1.17913 21.6746 1.03603
4956.39 1.18336 1.17444 21.7743 1.03624
4956.79 1.17763 1.17044 21.8892 1.03646
4957.2 1.17269 1.16715 21.9905 1.03668
4957.6 1.16874 1.16457 22.0472 1.0369
4958.01 1.16604 1.16272 22.1031 1.03712
4958.42 1.16481 1.1616 22.1187 1.03735
4958.82 1.16504 1.16119 22.1344 1.03758
4959.23 1.16661 1.16142 22.1228 1.03781
4959.63 1.16897 1.16215 22.1046 1.03804
4960.04 1.17137 1.16325 22.0641 1.03827
4960.44 1.17323 1.16462 22.0081 1.03851
4960.85 1.17408 1.16628 21.9769 1.03875
4961.26 1.17381 1.16825 21.9875 1.03899
4961.66 1.17284 1.17055 22.0044 1.03923
4962.07 1.17176 1.17313 22.0563 1.03948
4962.47 1.1715 1.17577 22.1082 1.03972
4962.88 1.17273 1.17825 22.0517 1.03997
4963.29 1.17451 1.18033 21.9879 1.04022
4963.69 1.17557 1.18184 21.952 1.04047
4964.1 1.17586 1.18278 21.9271 1.04073
4964.5 1.17603 1.18326 21.9122 1.04098
4964.91 1.17652 1.18345 21.9072 1.04124
4965.32 1.17756 1.18356 21.9061 1.0415
4965.72 1.17873 1.18369 21.9143 1.04175
4966.13 1.17844 1.18391 21.924 1.04202
4966.54 1.17587 1.1842 21.9527 1.04228
4966.94 1.17305 1.18451 21.9814 1.04254
4967.35 1.17229 1.18478 21.9553 1.04281
4967.75 1.17387 1.18506 21.9202 1.04307
4968.16 1.17728 1.18543 21.8632 1.04334
4968.57 1.18123 1.18609 21.7942 1.04361
4968.97 1.18398 1.18724 21.7425 1.04388
4969.38 1.18508 1.189 21.7134 1.04415
4969.79 1.18574 1.19131 21.685 1.04443
4970.19 1.18696 1.19405 21.6592 1.0447
4970.6 1.18912 1.19695 21.6335 1.04498
4971.01 1.19235 1.19979 21.5973 1.04525
4971.41 1.19626 1.20235 21.5611 1.04553
4971.82 1.20022 1.20449 21.5153 1.04581
4972.23 1.2029 1.20614 21.4671 1.04609
4972.63 1.20277 1.2073 21.4739 1.04636
4973.04 1.20029 1.20807 21.5213 1.04665
4973.45 1.19758 1.20866 21.5573 1.04693
4973.86 1.19589 1.20918 21.5735 1.04721
4974.26 1.19524 1.20968 21.5885 1.04749
4974.67 1.19531 1.21005 21.5973 1.04777
4975.08 1.19522 1.20998 21.6061 1.04806
4975.48 1.19411 1.20913 21.6444 1.04834
4975.89 1.19156 1.20725 21.6846 1.04863
4976.3 1.18737 1.20423 21.7622 1.04891
4976.7 1.18196 1.20013 21.8539 1.0492
4977.11 1.17607 1.19516 21.9476 1.04949
4977.52 1.17016 1.18951 22.043 1.04977
4977.93 1.16446 1.18342 22.1383 1.05006
4978.33 1.15884 1.17703 22.2326 1.05035
4978.74 1.15273 1.17043 22.3335 1.05064
4979.15 1.14576 1.16366 22.4903 1.05092
4979.56 1.13846 1.15674 22.6488 1.05121
4979.96 1.13146 1.14972 22.7784 1.0515
4980.37 1.12501 1.14272 22.9054 1.05179
4980.78 1.11923 1.13595 23.013 1.05208
4981.19 1.11412 1.12964 23.112 1.05237
4981.59 1.1096 1.12405 23.1955 1.05265
4982.0 1.10552 1.11934 23.2615 1.05294
4982.41 1.1016 1.11559 23.3257 1.05323
4982.82 1.09793 1.11277 23.3842 1.05352
4983.22 1.09518 1.11083 23.44 1.05381
4983.63 1.09394 1.10971 23.4515 1.05409
4984.04 1.09426 1.10943 23.463 1.05438
4984.45 1.09601 1.10999 23.4342 1.05467
4984.86 1.09854 1.11138 23.3984 1.05496
4985.26 1.10109 1.11357 23.3585 1.05524
4985.67 1.10373 1.11645 23.3164 1.05553
4986.08 1.1071 1.11992 23.2496 1.05581
4986.49 1.11162 1.12391 23.1516 1.0561
4986.89 1.11741 1.12836 23.0442 1.05638
4987.3 1.12444 1.13314 22.9046 1.05667
4987.71 1.13238 1.13809 22.7651 1.05695
4988.12 1.14075 1.143 22.5846 1.05723
4988.53 1.1486 1.14772 22.4063 1.05752
4988.94 1.15494 1.15221 22.3253 1.0578
4989.34 1.15937 1.15653 22.2655 1.05808
4989.75 1.16178 1.16077 22.225 1.05836
4990.16 1.16264 1.16495 22.1965 1.05864
4990.57 1.16284 1.16898 22.1714 1.05892
4990.98 1.16351 1.17268 22.1511 1.05919
4991.39 1.16603 1.17589 22.1153 1.05947
4991.79 1.17078 1.17851 22.0215 1.05974
4992.2 1.17588 1.18059 21.9285 1.06002
4992.61 1.17954 1.18219 21.8935 1.06029
4993.02 1.18138 1.18338 21.8586 1.06056
4993.43 1.18143 1.18411 21.8487 1.06083
4993.84 1.18014 1.18434 21.8449 1.0611
4994.24 1.17815 1.18405 21.8528 1.06137
4994.65 1.1763 1.18328 21.8687 1.06164
4995.06 1.17553 1.18218 21.8858 1.06191
4995.47 1.17586 1.18087 21.9049 1.06217
4995.88 1.17613 1.17936 21.9268 1.06243
4996.29 1.17533 1.17763 21.9604 1.06269
4996.7 1.17305 1.17555 21.9941 1.06295
4997.11 1.16906 1.17301 22.0512 1.06321
4997.51 1.16376 1.16999 22.1086 1.06347
4997.92 1.15774 1.16657 22.2193 1.06373
4998.33 1.1521 1.16284 22.345 1.06398
4998.74 1.14809 1.15894 22.4205 1.06423
4999.15 1.14584 1.15492 22.4606 1.06448
4999.56 1.14466 1.15075 22.4926 1.06473
4999.97 1.14375 1.14638 22.5115 1.06498
5000.38 1.14234 1.14179 22.5335 1.06522
5000.79 1.13991 1.137 22.5684 1.06546
5001.2 1.13669 1.13215 22.6034 1.06571
5001.61 1.13304 1.12744 22.7111 1.06594
5002.01 1.12945 1.12301 22.8204 1.06618
5002.42 1.12638 1.11897 22.8994 1.06642
5002.83 1.12394 1.11533 22.9707 1.06665
5003.24 1.12204 1.11201 23.0182 1.06688
5003.65 1.12038 1.10894 23.0492 1.06711
5004.06 1.11849 1.10611 23.0691 1.06734
5004.47 1.11662 1.10357 23.0718 1.06756
5004.88 1.11602 1.10145 23.0757 1.06779
5005.29 1.11728 1.09979 23.0848 1.06801
5005.7 1.1194 1.09858 23.0939 1.06823
5006.11 1.1212 1.09772 23.098 1.06844
5006.52 1.12181 1.09707 23.102 1.06866
5006.93 1.12061 1.09655 23.0953 1.06887
5007.34 1.11841 1.09614 23.086 1.06909
5007.75 1.1166 1.09585 23.0939 1.0693
5008.16 1.11555 1.09567 23.1131 1.0695
5008.57 1.11483 1.09548 23.1271 1.06971
5008.98 1.11415 1.09514 23.1333 1.06992
5009.39 1.11339 1.09458 23.1379 1.07012
5009.8 1.1125 1.09379 23.1367 1.07032
5010.21 1.11158 1.09291 23.136 1.07052
5010.62 1.11059 1.09207 23.1617 1.07072
5011.03 1.109 1.09129 23.1875 1.07091
5011.44 1.10632 1.09048 23.2365 1.07111
5011.85 1.10303 1.08953 23.2909 1.0713
5012.26 1.10003 1.08833 23.3399 1.07149
5012.67 1.09792 1.08694 23.3856 1.07168
5013.08 1.09701 1.0855 23.416 1.07186
5013.49 1.09662 1.08418 23.426 1.07205
5013.9 1.09485 1.08309 23.4537 1.07223
5014.31 1.0909 1.08223 23.5389 1.07241
5014.72 1.0863 1.08157 23.6229 1.07259
5015.13 1.08261 1.08102 23.6691 1.07277
5015.54 1.08038 1.08059 23.7155 1.07295
5015.95 1.07985 1.08031 23.7274 1.07313
5016.36 1.08047 1.08027 23.7332 1.0733
5016.77 1.08146 1.08055 23.7289 1.07347
5017.18 1.08264 1.08124 23.7192 1.07364
5017.59 1.08428 1.0824 23.6957 1.07381
5018.0 1.08643 1.08408 23.6562 1.07398
5018.41 1.0889 1.08631 23.6139 1.07415
5018.82 1.09151 1.08901 23.5639 1.07431
5019.23 1.09409 1.09204 23.5141 1.07447
5019.64 1.09655 1.0952 23.4647 1.07463
5020.05 1.09891 1.09828 23.4155 1.07479
5020.46 1.10126 1.10114 23.3716 1.07495
5020.88 1.10355 1.10376 23.3285 1.07511
5021.29 1.10577 1.1062 23.269 1.07526
5021.7 1.1082 1.10857 23.2027 1.07542
5022.11 1.1113 1.11099 23.1228 1.07557
5022.52 1.11569 1.11356 23.0297 1.07572
5022.93 1.12208 1.11632 22.9239 1.07587
5023.34 1.12996 1.1193 22.7903 1.07602
5023.75 1.13684 1.12253 22.6693 1.07617
5024.16 1.14091 1.12592 22.6281 1.07631
5024.57 1.14276 1.1294 22.5869 1.07646
5024.99 1.14343 1.13288 22.5694 1.0766
5025.4 1.14417 1.13633 22.5534 1.07674
5025.81 1.14609 1.13983 22.5178 1.07688
5026.22 1.14861 1.1435 22.4757 1.07702
5026.63 1.15032 1.14741 22.4385 1.07716
5027.04 1.15149 1.15154 22.4051 1.0773
5027.45 1.15379 1.15578 22.3549 1.07743
5027.86 1.15806 1.15994 22.2764 1.07756
5028.28 1.16387 1.16392 22.1921 1.0777
5028.69 1.17016 1.16765 22.0811 1.07783
5029.1 1.17446 1.17109 21.9709 1.07796
5029.51 1.17516 1.17425 22.0021 1.07809
5029.92 1.17489 1.17715 22.034 1.07821
5030.33 1.17692 1.17986 21.9613 1.07834
5030.74 1.18148 1.18245 21.8645 1.07847
5031.16 1.18742 1.18494 21.7674 1.07859
5031.57 1.19311 1.18729 21.6703 1.07871
5031.98 1.19656 1.18932 21.6408 1.07883
5032.39 1.19689 1.19076 21.6984 1.07895
5032.8 1.19449 1.19136 21.7517 1.07907
5033.21 1.19011 1.19093 21.7919 1.07919
5033.63 1.18499 1.18946 21.8325 1.07931
5034.04 1.18026 1.18708 21.8793 1.07943
5034.45 1.1764 1.18399 21.9263 1.07954
5034.86 1.17359 1.18036 21.9855 1.07966
5035.27 1.17112 1.17629 22.0467 1.07977
5035.69 1.16799 1.17174 22.1461 1.07988
5036.1 1.16343 1.16664 22.263 1.07999
5036.51 1.15687 1.161 22.3951 1.0801
5036.92 1.14864 1.15491 22.5423 1.08021
5037.33 1.13996 1.1486 22.6886 1.08032
5037.75 1.13215 1.14232 22.8312 1.08042
5038.16 1.12666 1.13634 22.9639 1.08053
5038.57 1.12408 1.13092 23.0293 1.08064
5038.98 1.12267 1.12628 23.095 1.08074
5039.4 1.12077 1.12262 23.1312 1.08084
5039.81 1.11862 1.12007 23.1663 1.08095
5040.22 1.11703 1.11865 23.1765 1.08105
5040.63 1.11653 1.1183 23.1795 1.08115
5041.04 1.11754 1.1189 23.1611 1.08125
5041.46 1.11991 1.12028 23.1281 1.08135
5041.87 1.12307 1.12229 23.0913 1.08144
5042.28 1.12649 1.12483 23.0491 1.08154
5042.7 1.1297 1.12784 23.0081 1.08164
5043.11 1.1325 1.13133 22.9706 1.08173
5043.52 1.13522 1.13532 22.9323 1.08183
5043.93 1.13834 1.13984 22.8793 1.08192
5044.35 1.1425 1.14479 22.8264 1.08201
5044.76 1.14819 1.14996 22.7007 1.0821
5045.17 1.1547 1.15506 22.565 1.0822
5045.58 1.16091 1.15979 22.4836 1.08229
5046.0 1.16617 1.16391 22.4265 1.08238
5046.41 1.17009 1.16734 22.3857 1.08247
5046.82 1.17255 1.17012 22.3604 1.08255
5047.24 1.17364 1.17239 22.3401 1.08264
5047.65 1.17377 1.1743 22.3302 1.08273
5048.06 1.17377 1.17596 22.3191 1.08282
5048.47 1.17425 1.17742 22.3018 1.0829
5048.89 1.17517 1.17865 22.2846 1.08299
5049.3 1.17637 1.17961 22.2609 1.08307
5049.71 1.17783 1.18028 22.2371 1.08315
5050.13 1.17951 1.18063 22.207 1.08324
5050.54 1.18145 1.18076 22.1752 1.08332
5050.95 1.1837 1.18081 22.1318 1.0834
5051.37 1.18605 1.18098 22.0812 1.08348
5051.78 1.18813 1.18157 22.0404 1.08356
5052.19 1.18974 1.1828 22.0122 1.08364
5052.61 1.19095 1.18479 21.9835 1.08372
5053.02 1.19189 1.18753 21.9529 1.0838
5053.43 1.19286 1.19086 21.9202 1.08388
5053.85 1.19428 1.19457 21.8626 1.08396
5054.26 1.1969 1.19852 21.8051 1.08404
5054.67 1.20131 1.20266 21.7279 1.08411
5055.09 1.2067 1.20696 21.6491 1.08419
5055.5 1.21189 1.21141 21.5772 1.08427
5055.91 1.2164 1.2159 21.5082 1.08434
5056.33 1.22019 1.22028 21.4452 1.08442
5056.74 1.224 1.22442 21.3873 1.08449
5057.16 1.22924 1.2283 21.3104 1.08457
5057.57 1.236 1.23198 21.2023 1.08464
5057.98 1.24246 1.23548 21.1087 1.08471
5058.4 1.24725 1.23875 21.069 1.08479
5058.81 1.25019 1.24163 21.0305 1.08486
5059.23 1.25144 1.24386 21.028 1.08493
5059.64 1.25157 1.24524 21.0255 1.085
5060.05 1.2511 1.2457 21.0209 1.08507
5060.47 1.24944 1.24527 21.0159 1.08514
5060.88 1.24574 1.2441 21.0866 1.08521
5061.3 1.24076 1.24233 21.1937 1.08528
5061.71 1.2363 1.24004 21.2897 1.08535
5062.12 1.23335 1.23723 21.3745 1.08541
5062.54 1.23209 1.23389 21.4336 1.08548
5062.95 1.2312 1.23001 21.4402 1.08555
5063.37 1.22716 1.22566 21.4681 1.08561
5063.78 1.21831 1.22095 21.6084 1.08568
5064.2 1.20823 1.21604 21.7502 1.08574
5064.61 1.20064 1.21111 21.814 1.08581
5065.02 1.19631 1.20629 21.8771 1.08587
5065.44 1.19503 1.20168 21.891 1.08593
5065.85 1.19482 1.19736 21.8938 1.08599
5066.27 1.19312 1.19332 21.9165 1.08605
5066.68 1.1898 1.18958 21.9502 1.08611
5067.1 1.18634 1.18613 21.9991 1.08617
5067.51 1.18335 1.183 22.0648 1.08623
5067.93 1.18045 1.18026 22.1366 1.08629
5068.34 1.17731 1.17798 22.2219 1.08634
5068.75 1.17377 1.17618 22.3097 1.0864
5069.17 1.17013 1.17485 22.4114 1.08645
5069.58 1.16794 1.1739 22.5138 1.08651
5070.0 1.16848 1.17322 22.4693 1.08656
5070.41 1.17094 1.17273 22.4192 1.08662
5070.83 1.17399 1.17237 22.3686 1.08667
5071.24 1.17666 1.17209 22.318 1.08672
5071.66 1.17824 1.17187 22.2827 1.08677
5072.07 1.1785 1.17164 22.2567 1.08682
5072.49 1.17764 1.17134 22.2686 1.08687
5072.9 1.17596 1.1709 22.326 1.08691
5073.32 1.1739 1.17021 22.3768 1.08696
5073.73 1.17169 1.16916 22.4106 1.08701
5074.15 1.16913 1.16769 22.4433 1.08705
5074.56 1.16598 1.16577 22.4671 1.0871
5074.98 1.16196 1.16344 22.4909 1.08714
5075.39 1.15706 1.16081 22.5276 1.08718
5075.81 1.15269 1.15795 22.5651 1.08722
5076.23 1.15039 1.15493 22.5733 1.08726
5076.64 1.14974 1.15178 22.5733 1.0873
5077.06 1.14943 1.14848 22.5884 1.08734
5077.47 1.14842 1.14502 22.6129 1.08738
5077.89 1.1459 1.14145 22.6629 1.08742
5078.3 1.14202 1.13783 22.7444 1.08745
5078.72 1.13804 1.13424 22.8276 1.08749
5079.13 1.13459 1.13077 22.9148 1.08752
5079.55 1.13122 1.12748 23.0024 1.08755
5079.96 1.1275 1.12445 23.0902 1.08758
5080.38 1.12359 1.12179 23.1786 1.08762
5080.8 1.11979 1.11971 23.262 1.08764
5081.21 1.11676 1.11839 23.3455 1.08767
5081.63 1.11517 1.11795 23.3963 1.0877
5082.04 1.11481 1.11844 23.4382 1.08773
5082.46 1.11508 1.11973 23.4642 1.08775
5082.87 1.11584 1.12164 23.4804 1.08778
5083.29 1.11724 1.12405 23.4795 1.0878
5083.71 1.11946 1.12692 23.4586 1.08782
5084.12 1.12268 1.13026 23.4175 1.08784
5084.54 1.12686 1.13412 23.328 1.08786
5084.95 1.13158 1.1385 23.2411 1.08788
5085.37 1.13648 1.14331 23.1682 1.0879
5085.79 1.14142 1.14843 23.0956 1.08791
5086.2 1.14636 1.15369 23.0118 1.08793
5086.62 1.15135 1.15893 22.9281 1.08794
5087.04 1.15653 1.16408 22.8291 1.08795
5087.45 1.16214 1.16906 22.7269 1.08796
5087.87 1.16849 1.1739 22.603 1.08798
5088.28 1.1753 1.17859 22.4677 1.08798
5088.7 1.18194 1.18314 22.3553 1.08799
5089.12 1.18783 1.18751 22.2669 1.088
5089.53 1.19241 1.19161 22.1932 1.088
5089.95 1.19523 1.1953 22.1499 1.08801
5090.37 1.19602 1.19849 22.117 1.08801
5090.78 1.19514 1.20107 22.1389 1.08801
5091.2 1.19457 1.20297 22.1608 1.08801
5091.62 1.19597 1.20422 22.1446 1.08801
5092.03 1.19871 1.20486 22.1283 1.08801
5092.45 1.2016 1.20496 22.1193 1.088
5092.87 1.20334 1.2046 22.1116 1.088
5093.28 1.20269 1.20374 22.1382 1.08799
5093.7 1.19956 1.20231 22.1812 1.08798
5094.12 1.19459 1.20023 22.2512 1.08798
5094.53 1.18875 1.19743 22.3465 1.08797
5094.95 1.18332 1.19402 22.4298 1.08795
5095.37 1.17915 1.19019 22.4905 1.08794
5095.78 1.17653 1.18617 22.5416 1.08793
5096.2 1.17524 1.18217 22.5531 1.08791
5096.62 1.17413 1.17834 22.5659 1.08789
5097.03 1.17221 1.17468 22.6096 1.08787
5097.45 1.16949 1.17118 22.6535 1.08785
5097.87 1.16621 1.16782 22.7135 1.08783
5098.29 1.16262 1.16461 22.7759 1.08781
5098.7 1.15899 1.16158 22.8419 1.08778
5099.12 1.1556 1.1588 22.9093 1.08776
5099.54 1.15274 1.15637 22.9579 1.08773
5099.95 1.15028 1.15433 22.9919 1.0877
5100.37 1.14776 1.15273 23.0188 1.08767
5100.79 1.14519 1.15149 23.0353 1.08764
5101.21 1.14318 1.15052 23.0502 1.0876
5101.62 1.14222 1.14971 23.0603 1.08757
5102.04 1.14257 1.14898 23.0702 1.08753
5102.46 1.14405 1.14831 23.0787 1.0875
5102.88 1.14533 1.14773 23.0872 1.08746
5103.29 1.14517 1.14727 23.1211 1.08741
5103.71 1.14382 1.14691 23.1565 1.08737
5104.13 1.14196 1.14658 23.2028 1.08733
5104.55 1.14007 1.14613 23.2521 1.08728
5104.96 1.13856 1.1455 23.3075 1.08723
5105.38 1.13755 1.14467 23.3666 1.08718
5105.8 1.13698 1.14374 23.3995 1.08713
5106.22 1.13674 1.14285 23.4035 1.08708
5106.63 1.13666 1.14213 23.4146 1.08703
5107.05 1.13653 1.14162 23.4408 1.08697
5107.47 1.13604 1.14133 23.4687 1.08691
5107.89 1.13493 1.14126 23.5044 1.08686
5108.31 1.13303 1.14145 23.5399 1.08679
5108.72 1.13065 1.14195 23.5556 1.08673
5109.14 1.12986 1.14282 23.5713 1.08667
5109.56 1.13261 1.14407 23.5055 1.0866
5109.98 1.13781 1.14567 23.4269 1.08654
5110.4 1.14326 1.14756 23.3491 1.08647
5110.81 1.1473 1.14974 23.2718 1.0864
5111.23 1.14876 1.15226 23.2287 1.08633
5111.65 1.14933 1.15522 23.2127 1.08625
5112.07 1.15311 1.15867 23.131 1.08618
5112.49 1.16102 1.16258 22.954 1.0861
5112.91 1.16976 1.16681 22.7928 1.08603
5113.32 1.17665 1.17114 22.6742 1.08595
5113.74 1.18061 1.17534 22.5647 1.08587
5114.16 1.18151 1.17928 22.5282 1.08579
5114.58 1.18144 1.18288 22.4918 1.08571
5115.0 1.18257 1.18617 22.4486 1.08563
5115.42 1.18541 1.18921 22.4051 1.08555
5115.83 1.18992 1.19201 22.3305 1.08546
5116.25 1.19533 1.19455 22.2485 1.08538
5116.67 1.2005 1.19668 22.1724 1.08529
5117.09 1.20409 1.1982 22.0997 1.08521
5117.51 1.2047 1.19892 22.1043 1.08512
5117.93 1.2025 1.19868 22.1863 1.08503
5118.35 1.19926 1.19743 22.259 1.08495
5118.77 1.19612 1.19523 22.3139 1.08486
5119.18 1.1932 1.1922 22.3691 1.08477
5119.6 1.19041 1.1885 22.4248 1.08468
5120.02 1.18742 1.18424 22.4819 1.08459
5120.44 1.18377 1.1795 22.5602 1.0845
5120.86 1.17889 1.1743 22.6389 1.08442
5121.28 1.17229 1.16873 22.7873 1.08433
5121.7 1.16446 1.16287 22.9445 1.08424
5122.12 1.15613 1.15683 23.0989 1.08415
5122.54 1.14795 1.15071 23.2534 1.08406
5122.96 1.14047 1.14458 23.3965 1.08397
5123.37 1.13402 1.13849 23.5326 1.08388
5123.79 1.12872 1.13258 23.6527 1.08379
5124.21 1.12432 1.12701 23.7535 1.0837
5124.63 1.12014 1.12193 23.8515 1.08361
5125.05 1.11576 1.11745 23.9426 1.08352
5125.47 1.11127 1.11363 24.0318 1.08343
5125.89 1.10694 1.11045 24.11 1.08334
5126.31 1.10335 1.10788 24.1877 1.08325
5126.73 1.10093 1.10591 24.2325 1.08317
5127.15 1.09932 1.10457 24.2774 1.08308
5127.57 1.09811 1.10388 24.2988 1.08299
5127.99 1.0977 1.10385 24.3168 1.08291
5128.41 1.09874 1.10451 24.3012 1.08282
5128.83 1.10168 1.10581 24.2732 1.08274
5129.25 1.10671 1.10771 24.1923 1.08266
5129.67 1.11267 1.11012 24.0749 1.08257
5130.09 1.11732 1.11289 23.972 1.08249
5130.51 1.11995 1.11581 23.8867 1.08241
5130.93 1.12159 1.1187 23.8088 1.08233
5131.35 1.12315 1.12144 23.7474 1.08225
5131.77 1.12517 1.124 23.6902 1.08217
5132.19 1.12761 1.12645 23.6543 1.0821
5132.6 1.12914 1.12885 23.6188 1.08202
5133.02 1.12901 1.13117 23.6112 1.08195
5133.44 1.12949 1.1333 23.6036 1.08187
5133.86 1.13314 1.13505 23.534 1.0818
5134.28 1.13976 1.13628 23.4553 1.08173
5134.71 1.148 1.13694 23.3461 1.08166
5135.13 1.15475 1.13711 23.2261 1.0816
5135.55 1.15623 1.13688 23.1984 1.08153
5135.97 1.15321 1.13629 23.2359 1.08147
5136.39 1.15006 1.13531 23.2685 1.0814
5136.81 1.14903 1.13391 23.2948 1.08134
5137.23 1.14975 1.13216 23.3219 1.08128
5137.65 1.15126 1.13019 23.351 1.08123
5138.07 1.15188 1.12817 23.3846 1.08117
5138.49 1.15038 1.1262 23.4422 1.08112
5138.91 1.14698 1.12421 23.5008 1.08107
5139.33 1.14217 1.12208 23.6001 1.08102
5139.75 1.13675 1.11969 23.6999 1.08097
5140.17 1.1316 1.11704 23.7821 1.08092
5140.59 1.12743 1.11433 23.8621 1.08088
5141.01 1.12488 1.1118 23.8994 1.08084
5141.43 1.12414 1.10965 23.9216 1.0808
5141.85 1.12511 1.10795 23.9062 1.08076
5142.27 1.12693 1.10661 23.8659 1.08073
5142.69 1.12815 1.10547 23.8471 1.0807
5143.11 1.12789 1.10435 23.8536 1.08067
5143.53 1.12595 1.10317 23.8786 1.08064
5143.96 1.12272 1.10198 23.9431 1.08062
5144.38 1.11953 1.10082 24.0098 1.0806
5144.8 1.11717 1.09978 24.0863 1.08058
5145.22 1.11492 1.09884 24.1624 1.08056
5145.64 1.11213 1.09798 24.2246 1.08055
5146.06 1.10903 1.09719 24.287 1.08053
5146.48 1.10611 1.09649 24.327 1.08053
5146.9 1.10416 1.09591 24.3648 1.08052
5147.32 1.10388 1.09545 24.3425 1.08052
5147.75 1.10467 1.09503 24.3022 1.08052
5148.17 1.10529 1.09457 24.289 1.08052
5148.59 1.10532 1.09401 24.2914 1.08053
5149.01 1.10489 1.0934 24.302 1.08054
5149.43 1.10425 1.09287 24.3209 1.08055
5149.85 1.10371 1.09264 24.3396 1.08057
5150.27 1.10309 1.09293 24.3583 1.08059
5150.69 1.10145 1.09385 24.3764 1.08061
5151.12 1.09888 1.09537 24.3926 1.08064
5151.54 1.09768 1.09737 24.3996 1.08067
5151.96 1.09991 1.09965 24.311 1.0807
5152.38 1.10603 1.102 24.2228 1.08074
5152.8 1.11548 1.10434 23.9884 1.08078
5153.22 1.12439 1.10664 23.7502 1.08083
5153.64 1.12864 1.10897 23.7453 1.08087
5154.07 1.12898 1.11144 23.7921 1.08093
5154.49 1.12818 1.11415 23.8128 1.08098
5154.91 1.12798 1.11719 23.8215 1.08104
5155.33 1.12949 1.12059 23.8018 1.0811
5155.75 1.13293 1.12434 23.7587 1.08117
5156.18 1.13784 1.1283 23.6928 1.08124
5156.6 1.14342 1.13219 23.595 1.08132
5157.02 1.14857 1.13572 23.5197 1.0814
5157.44 1.15244 1.13859 23.5006 1.08148
5157.86 1.15475 1.14064 23.4888 1.08157
5158.29 1.15539 1.14185 23.5189 1.08166
5158.71 1.15457 1.14225 23.5493 1.08176
5159.13 1.15234 1.1418 23.5961 1.08186
5159.55 1.14797 1.14037 23.643 1.08197
5159.97 1.14079 1.13775 23.767 1.08207
5160.4 1.13167 1.1337 23.902 1.08219
5160.82 1.12198 1.12809 24.0558 1.08231
5161.24 1.11283 1.12093 24.217 1.08243
5161.66 1.10511 1.11233 24.37 1.08256
5162.08 1.09829 1.1025 24.5184 1.08269
5162.51 1.09079 1.09165 24.6938 1.08283
5162.93 1.08155 1.07997 24.8979 1.08297
5163.35 1.07002 1.06758 25.1414 1.08312
5163.77 1.05603 1.05461 25.4549 1.08327
5164.2 1.03986 1.04115 25.8057 1.08343
5164.62 1.02222 1.02731 26.2717 1.08359
5165.04 1.0046 1.01322 26.7437 1.08375
5165.46 0.988154 0.999039 27.1657 1.08392
5165.89 0.972635 0.984945 27.5978 1.0841
5166.31 0.957643 0.971152 28.0013 1.08428
5166.73 0.943159 0.957875 28.4126 1.08446
5167.16 0.929314 0.945309 28.7959 1.08465
5167.58 0.916505 0.933668 29.18 1.08484
5168.0 0.905213 0.92313 29.5006 1.08504
5168.42 0.895665 0.913809 29.7974 1.08524
5168.85 0.887918 0.905784 30.0392 1.08544
5169.27 0.881742 0.899072 30.2412 1.08565
5169.69 0.87667 0.893696 30.4139 1.08586
5170.12 0.872236 0.889721 30.5504 1.08608
5170.54 0.867996 0.887249 30.675 1.0863
5170.96 0.864638 0.886392 30.7738 1.08652
5171.39 0.864612 0.887181 30.8094 1.08675
5171.81 0.869241 0.889546 30.5939 1.08698
5172.23 0.876993 0.893327 30.3762 1.08721
5172.65 0.885966 0.898304 30.1066 1.08745
5173.08 0.894305 0.904286 29.8407 1.08769
5173.5 0.900707 0.911106 29.6833 1.08794
5173.92 0.906426 0.918605 29.5331 1.08819
5174.35 0.913218 0.926649 29.2931 1.08844
5174.77 0.921168 0.935061 29.0366 1.08869
5175.19 0.929659 0.943617 28.7893 1.08895
5175.62 0.938101 0.952104 28.5476 1.08921
5176.04 0.945929 0.960257 28.3321 1.08948
5176.46 0.952736 0.967799 28.1361 1.08975
5176.89 0.95825 0.97451 27.9975 1.09002
5177.31 0.962469 0.980157 27.9286 1.09029
5177.74 0.965701 0.984581 27.8617 1.09057
5178.16 0.968182 0.987758 27.7986 1.09085
5178.58 0.97001 0.989734 27.7365 1.09113
5179.01 0.971202 0.990661 27.6778 1.09142
5179.43 0.971631 0.990756 27.6248 1.0917
5179.85 0.971144 0.990183 27.6439 1.092
5180.28 0.969564 0.989058 27.6631 1.09229
5180.7 0.966827 0.987488 27.7406 1.09258
5181.13 0.963418 0.985572 27.8217 1.09288
5181.55 0.960011 0.983451 27.9224 1.09318
5181.97 0.95747 0.981324 28.0277 1.09349
5182.4 0.956617 0.979389 28.0698 1.09379
5182.82 0.95704 0.977851 28.0849 1.0941
5183.25 0.957661 0.976941 28.0681 1.09441
5183.67 0.958412 0.976956 28.0282 1.09472
5184.09 0.960051 0.978217 27.962 1.09504
5184.52 0.963328 0.980974 27.8648 1.09535
5184.94 0.968939 0.985317 27.7343 1.09567
5185.37 0.976598 0.991098 27.5388 1.09599
5185.79 0.984505 0.99799 27.3514 1.09631
5186.22 0.991547 1.00558 27.1878 1.09664
5186.64 0.998357 1.01355 27.0208 1.09696
5187.06 1.00575 1.0217 26.8083 1.09729
5187.49 1.01437 1.02996 26.5984 1.09762
5187.91 1.0247 1.03832 26.2917 1.09795
5188.34 1.03653 1.04672 25.9875 1.09828
5188.76 1.04936 1.05501 25.7205 1.09861
5189.19 1.06184 1.06305 25.4631 1.09895
5189.61 1.07241 1.07075 25.2573 1.09929
5190.04 1.08062 1.07809 25.0712 1.09962
5190.46 1.08675 1.08519 24.9314 1.09996
5190.88 1.09256 1.09212 24.8204 1.1003
5191.31 1.1008 1.09883 24.6479 1.10064
5191.73 1.11129 1.10521 24.4142 1.10099
5192.16 1.1209 1.11104 24.2218 1.10133
5192.58 1.1278 1.11621 24.0949 1.10168
5193.01 1.1322 1.12074 23.9877 1.10202
5193.43 1.13526 1.12479 23.9352 1.10237
5193.86 1.13963 1.12858 23.8717 1.10272
5194.28 1.14654 1.13232 23.7388 1.10306
5194.71 1.1531 1.13615 23.6089 1.10341
5195.13 1.15656 1.1401 23.5726 1.10376
5195.56 1.15737 1.14416 23.5363 1.10411
5195.98 1.15691 1.14827 23.5265 1.10446
5196.41 1.15736 1.1524 23.5195 1.10482
5196.83 1.16082 1.15649 23.4376 1.10517
5197.26 1.1667 1.16045 23.3358 1.10552
5197.68 1.17318 1.1641 23.2315 1.10587
5198.11 1.17912 1.1672 23.1264 1.10623
5198.54 1.18384 1.16947 23.0413 1.10658
5198.96 1.18686 1.17076 22.972 1.10693
5199.39 1.18791 1.17103 22.943 1.10729
5199.81 1.1872 1.17047 22.9653 1.10764
5200.24 1.18544 1.16938 22.9976 1.10799
5200.66 1.1831 1.16796 23.0507 1.10835
5201.09 1.18016 1.16629 23.1077 1.1087
5201.51 1.17652 1.1642 23.1791 1.10906
5201.94 1.17209 1.16137 23.2526 1.10941
5202.36 1.16683 1.15754 23.3443 1.10976
5202.79 1.1608 1.15258 23.4364 1.11012
5203.22 1.15407 1.14658 23.5834 1.11047
5203.64 1.1466 1.13984 23.733 1.11082
5204.07 1.13836 1.13274 23.8946 1.11117
5204.49 1.1296 1.12569 24.0594 1.11152
5204.92 1.12066 1.11901 24.232 1.11187
5205.34 1.11215 1.11295 24.4085 1.11222
5205.77 1.10478 1.10767 24.551 1.11257
5206.2 1.09894 1.10323 24.674 1.11292
5206.62 1.09474 1.09968 24.7639 1.11327
5207.05 1.09219 1.09701 24.8233 1.11362
5207.47 1.09114 1.09519 24.8572 1.11396
5207.9 1.09136 1.09433 24.8545 1.11431
5208.33 1.09248 1.09461 24.8257 1.11465
5208.75 1.0946 1.09623 24.7356 1.115
5209.18 1.09868 1.09942 24.6372 1.11534
5209.61 1.10517 1.10424 24.5012 1.11568
5210.03 1.11322 1.11044 24.3649 1.11602
5210.46 1.12168 1.11767 24.2129 1.11636
5210.88 1.12912 1.12551 24.0623 1.11669
5211.31 1.13469 1.1336 23.9466 1.11703
5211.74 1.14038 1.14188 23.833 1.11736
5212.16 1.14855 1.15036 23.6602 1.1177
5212.59 1.159 1.15908 23.4792 1.11803
5213.02 1.17053 1.168 23.2884 1.11836
5213.44 1.18172 1.17694 23.096 1.11869
5213.87 1.19121 1.18568 22.9236 1.11901
5214.3 1.19928 1.19403 22.7633 1.11934
5214.72 1.20733 1.20189 22.6085 1.11966
5215.15 1.21573 1.20924 22.4587 1.11998
5215.58 1.22388 1.21613 22.3189 1.1203
5216.0 1.23123 1.22259 22.1925 1.12062
5216.43 1.23736 1.2286 22.0778 1.12093
5216.86 1.24222 1.23411 21.9883 1.12125
5217.28 1.24636 1.23903 21.9107 1.12156
5217.71 1.25015 1.24326 21.8805 1.12187
5218.14 1.25352 1.24673 21.8514 1.12217
5218.56 1.25632 1.24943 21.8321 1.12248
5218.99 1.25844 1.25139 21.813 1.12278
5219.42 1.25981 1.25257 21.7985 1.12308
5219.85 1.26046 1.25289 21.7841 1.12338
5220.27 1.26041 1.25226 21.8145 1.12367
5220.7 1.25918 1.25061 21.8516 1.12397
5221.13 1.25623 1.24795 21.9004 1.12426
5221.55 1.25164 1.24449 21.9529 1.12455
5221.98 1.24585 1.24054 22.0152 1.12484
5222.41 1.23983 1.23638 22.0826 1.12512
5222.84 1.23488 1.23223 22.1644 1.12541
5223.26 1.23087 1.2281 22.258 1.12569
5223.69 1.22654 1.22388 22.355 1.12597
5224.12 1.2213 1.21947 22.456 1.12625
5224.55 1.2154 1.21487 22.5562 1.12652
5224.97 1.20949 1.21029 22.6543 1.1268
5225.4 1.20462 1.20612 22.7391 1.12707
5225.83 1.20151 1.20268 22.7783 1.12734
5226.26 1.19999 1.20008 22.8088 1.12761
5226.68 1.19976 1.19825 22.7802 1.12788
5227.11 1.2004 1.19701 22.7511 1.12814
5227.54 1.20147 1.19625 22.7035 1.1284
5227.97 1.20255 1.19609 22.656 1.12866
5228.39 1.20344 1.19673 22.6633 1.12892
5228.82 1.20494 1.19835 22.6752 1.12918
5229.25 1.20803 1.20101 22.626 1.12944
5229.68 1.21256 1.20457 22.5632 1.12969
5230.11 1.2179 1.20875 22.4823 1.12994
5230.53 1.22338 1.21328 22.3945 1.13019
5230.96 1.22837 1.21798 22.3076 1.13044
5231.39 1.23297 1.22287 22.2215 1.13069
5231.82 1.23779 1.22807 22.1322 1.13094
5232.25 1.24313 1.23368 22.0398 1.13118
5232.67 1.249 1.23973 21.9459 1.13142
5233.1 1.2553 1.24611 21.8495 1.13166
5233.53 1.26179 1.25265 21.7518 1.1319
5233.96 1.26798 1.25922 21.6502 1.13214
5234.39 1.2729 1.2657 21.5587 1.13238
5234.81 1.27634 1.27207 21.5045 1.13261
5235.24 1.27976 1.2783 21.4489 1.13285
5235.67 1.2845 1.28438 21.3779 1.13308
5236.1 1.29085 1.2903 21.3074 1.13331
5236.53 1.29839 1.29604 21.2059 1.13354
5236.96 1.30468 1.30166 21.1052 1.13376
5237.38 1.30745 1.3072 21.0939 1.13399
5237.81 1.30811 1.31261 21.0927 1.13421
5238.24 1.30913 1.31785 21.0649 1.13444
5238.67 1.31162 1.32283 21.0304 1.13466
5239.1 1.31594 1.32741 20.9696 1.13488
5239.53 1.3212 1.33153 20.8977 1.13509
5239.96 1.32577 1.3351 20.8407 1.13531
5240.39 1.32893 1.33803 20.7936 1.13553
5240.81 1.33067 1.34024 20.7613 1.13574
5241.24 1.33121 1.3417 20.7436 1.13596
5241.67 1.33103 1.3424 20.735 1.13617
5242.1 1.33078 1.34237 20.7403 1.13638
5242.53 1.33128 1.34161 20.7462 1.13659
5242.96 1.3326 1.34021 20.7536 1.1368
5243.39 1.33344 1.33828 20.7636 1.137
5243.82 1.33275 1.33594 20.7832 1.13721
5244.25 1.33037 1.33334 20.8047 1.13741
5244.67 1.32638 1.33056 20.8415 1.13762
5245.1 1.32128 1.3276 20.8789 1.13782
5245.53 1.31572 1.32444 20.9678 1.13802
5245.96 1.31067 1.32111 21.0572 1.13822
5246.39 1.30697 1.31763 21.1089 1.13842
5246.82 1.30434 1.31406 21.157 1.13862
5247.25 1.30217 1.31049 21.1957 1.13881
5247.68 1.29967 1.30691 21.2322 1.13901
5248.11 1.29608 1.30336 21.2857 1.1392
5248.54 1.29169 1.29984 21.346 1.1394
5248.97 1.28734 1.29637 21.4091 1.13959
5249.4 1.28359 1.29305 21.474 1.13978
5249.83 1.2808 1.29001 21.5269 1.13997
5250.26 1.27921 1.28744 21.5691 1.14016
5250.69 1.27895 1.28555 21.5855 1.14035
5251.12 1.27982 1.28456 21.5678 1.14054
5251.54 1.28126 1.28457 21.5462 1.14072
5251.97 1.28303 1.28559 21.5171 1.14091
5252.4 1.28539 1.28744 21.4861 1.14109
5252.83 1.28848 1.28989 21.4489 1.14128
5253.26 1.29222 1.29262 21.4104 1.14146
5253.69 1.29604 1.29543 21.363 1.14164
5254.12 1.29823 1.29824 21.3196 1.14182
5254.55 1.2978 1.30105 21.3401 1.142
5254.98 1.29668 1.30388 21.3607 1.14218
5255.41 1.29708 1.30667 21.3484 1.14236
5255.84 1.2998 1.30922 21.3349 1.14254
5256.27 1.30478 1.31123 21.2685 1.14272
5256.7 1.30926 1.31241 21.1943 1.14289
5257.13 1.30992 1.31255 21.2263 1.14307
5257.56 1.30708 1.31155 21.289 1.14324
5257.99 1.30272 1.30946 21.3458 1.14342
5258.42 1.29804 1.30634 21.3999 1.14359
5258.85 1.29374 1.30225 21.4426 1.14376
5259.28 1.2897 1.29722 21.4773 1.14394
5259.71 1.28517 1.29127 21.5499 1.14411
5260.15 1.27956 1.28433 21.6611 1.14428
5260.58 1.2724 1.27638 21.7883 1.14445
5261.01 1.26357 1.26741 21.9385 1.14462
5261.44 1.25337 1.25743 22.1005 1.14479
5261.87 1.24236 1.24652 22.2865 1.14496
5262.3 1.23157 1.23475 22.4703 1.14513
5262.73 1.22138 1.22221 22.6404 1.14529
5263.16 1.21082 1.20908 22.817 1.14546
5263.59 1.19914 1.19562 23.0242 1.14563
5264.02 1.18668 1.18221 23.2349 1.14579
5264.45 1.17409 1.16934 23.4641 1.14596
5264.88 1.16259 1.15743 23.6967 1.14613
5265.31 1.15319 1.14676 23.8731 1.14629
5265.74 1.14536 1.13743 24.0488 1.14645
5266.17 1.13826 1.12932 24.194 1.14662
5266.6 1.13174 1.1223 24.3356 1.14678
5267.04 1.12591 1.11635 24.4541 1.14695
5267.47 1.1211 1.11156 24.5666 1.14711
5267.9 1.11771 1.1082 24.645 1.14727
5268.33 1.11566 1.10648 24.7082 1.14743
5268.76 1.11464 1.10649 24.7209 1.1476
5269.19 1.11485 1.10816 24.7004 1.14776
5269.62 1.11687 1.11127 24.6495 1.14792
5270.05 1.12123 1.11556 24.5705 1.14808
5270.48 1.12839 1.12088 24.459 1.14824
5270.92 1.13764 1.12717 24.3046 1.1484
5271.35 1.14698 1.13448 24.1336 1.14856
5271.78 1.15547 1.14286 23.9298 1.14872
5272.21 1.16387 1.15232 23.7223 1.14888
5272.64 1.17311 1.16275 23.4994 1.14904
5273.07 1.18409 1.17394 23.2766 1.1492
5273.5 1.19699 1.18567 23.0421 1.14936
5273.94 1.21026 1.19776 22.8157 1.14952
5274.37 1.22248 1.21003 22.6438 1.14968
5274.8 1.23364 1.22231 22.4738 1.14984
5275.23 1.24398 1.23433 22.3106 1.15
5275.66 1.25378 1.24574 22.1491 1.15016
5276.09 1.26328 1.25628 21.9718 1.15032
5276.52 1.27237 1.26579 21.7951 1.15047
5276.96 1.28082 1.27428 21.6687 1.15063
5277.39 1.28862 1.28187 21.5535 1.15079
5277.82 1.29579 1.28869 21.456 1.15095
5278.25 1.30236 1.29487 21.3651 1.1511
5278.68 1.30831 1.30047 21.2882 1.15126
5279.12 1.31361 1.30558 21.2188 1.15141
5279.55 1.31815 1.31029 21.1613 1.15157
5279.98 1.32202 1.31467 21.1126 1.15172
5280.41 1.32545 1.31878 21.063 1.15188
5280.84 1.3286 1.3226 21.0125 1.15203
5281.28 1.3316 1.3261 20.9595 1.15219
5281.71 1.33451 1.32933 20.9029 1.15234
5282.14 1.33727 1.33245 20.8513 1.15249
5282.57 1.33993 1.33574 20.8098 1.15264
5283.0 1.34269 1.33957 20.765 1.15279
5283.44 1.34578 1.34417 20.7095 1.15295
5283.87 1.34943 1.34951 20.6514 1.1531
5284.3 1.3539 1.35534 20.5787 1.15325
5284.73 1.35949 1.36124 20.5043 1.15339
5285.17 1.36622 1.36681 20.4054 1.15354
5285.6 1.37304 1.37195 20.3072 1.15369
5286.03 1.37894 1.37679 20.2391 1.15384
5286.46 1.38372 1.3817 20.1714 1.15398
5286.9 1.38755 1.38707 20.1293 1.15413
5287.33 1.39143 1.39305 20.0896 1.15427
5287.76 1.39643 1.39953 19.995 1.15442
5288.19 1.40224 1.40616 19.8904 1.15456
5288.63 1.4081 1.41241 19.814 1.1547
5289.06 1.41343 1.41787 19.747 1.15485
5289.49 1.41779 1.42227 19.7018 1.15499
5289.93 1.42085 1.42543 19.6671 1.15513
5290.36 1.42239 1.42733 19.6473 1.15527
5290.79 1.42258 1.42796 19.6375 1.1554
5291.22 1.42193 1.42732 19.6461 1.15554
5291.66 1.42054 1.4255 19.6718 1.15568
5292.09 1.41812 1.42267 19.711 1.15581
5292.52 1.41418 1.41909 19.7676 1.15595
5292.96 1.40805 1.41503 19.8417 1.15608
5293.39 1.40016 1.41063 19.9469 1.15621
5293.82 1.39251 1.40588 20.0479 1.15635
5294.25 1.38636 1.40068 20.1362 1.15648
5294.69 1.38134 1.39495 20.2238 1.15661
5295.12 1.37666 1.38871 20.3064 1.15673
5295.55 1.37091 1.3821 20.3928 1.15686
5295.99 1.36347 1.37544 20.5024 1.15699
5296.42 1.35621 1.36905 20.611 1.15711
5296.85 1.35089 1.36326 20.683 1.15724
5297.29 1.34753 1.35831 20.7553 1.15736
5297.72 1.34569 1.3543 20.801 1.15748
5298.15 1.34448 1.35125 20.8461 1.1576
5298.59 1.34304 1.34915 20.8603 1.15772
5299.02 1.34133 1.34795 20.8709 1.15784
5299.46 1.33964 1.34766 20.8839 1.15796
5299.89 1.33884 1.34833 20.8975 1.15807
5300.32 1.34 1.35002 20.8813 1.15819
5300.76 1.34403 1.35284 20.855 1.1583
5301.19 1.35154 1.35688 20.7301 1.15841
5301.62 1.3607 1.36213 20.5582 1.15852
5302.06 1.36827 1.36841 20.4365 1.15863
5302.49 1.37361 1.37549 20.3485 1.15874
5302.93 1.37811 1.38304 20.2694 1.15885
5303.36 1.38334 1.39072 20.1986 1.15895
5303.79 1.39089 1.39827 20.1113 1.15906
5304.23 1.40047 1.40551 20.0037 1.15916
5304.66 1.40955 1.41238 19.9051 1.15926
5305.1 1.41679 1.41895 19.8209 1.15936
5305.53 1.42273 1.42536 19.7386 1.15946
5305.96 1.42804 1.43174 19.6601 1.15956
5306.4 1.43345 1.43812 19.581 1.15965
5306.83 1.43917 1.4443 19.4988 1.15974
5307.27 1.44438 1.44997 19.4227 1.15984
5307.7 1.44841 1.4548 19.3778 1.15993
5308.13 1.45137 1.45857 19.3343 1.16002
5308.57 1.45352 1.4613 19.304 1.1601
5309.0 1.45518 1.46314 19.2738 1.16019
5309.44 1.45663 1.4644 19.2546 1.16027
5309.87 1.45805 1.46538 19.2355 1.16035
5310.31 1.45956 1.46625 19.2268 1.16044
5310.74 1.46108 1.46703 19.2189 1.16051
5311.18 1.46243 1.46757 19.2102 1.16059
5311.61 1.46341 1.46767 19.2013 1.16067
5312.04 1.46378 1.46717 19.1874 1.16074
5312.48 1.46312 1.46602 19.1722 1.16081
5312.91 1.46105 1.46422 19.2041 1.16088
5313.35 1.45832 1.46187 19.2544 1.16095
5313.78 1.45626 1.45914 19.2908 1.16102
5314.22 1.45555 1.4562 19.3197 1.16108
5314.65 1.45632 1.45324 19.3164 1.16115
5315.09 1.45705 1.45039 19.2899 1.16121
5315.52 1.45499 1.44769 19.3182 1.16127
5315.96 1.44985 1.44503 19.3991 1.16133
5316.39 1.44379 1.44219 19.4708 1.16138
5316.83 1.43853 1.43897 19.5305 1.16143
5317.26 1.43512 1.43528 19.57 1.16149
5317.7 1.43357 1.4311 19.5749 1.16154
5318.13 1.4325 1.42654 19.5887 1.16158
5318.57 1.43065 1.42172 19.6223 1.16163
5319.0 1.42717 1.41673 19.666 1.16167
5319.44 1.42157 1.41158 19.7425 1.16172
5319.87 1.41402 1.40622 19.8287 1.16176
5320.31 1.40532 1.40055 19.9614 1.16179
5320.74 1.39762 1.39439 20.09 1.16183
5321.18 1.39221 1.38758 20.1698 1.16186
5321.61 1.38724 1.38004 20.2509 1.16189
5322.05 1.3807 1.3718 20.3539 1.16192
5322.49 1.3721 1.36303 20.4577 1.16195
5322.92 1.36181 1.35393 20.5942 1.16197
5323.36 1.35252 1.34473 20.7333 1.162
5323.79 1.3468 1.33565 20.8242 1.16202
5324.23 1.34321 1.3268 20.9103 1.16204
5324.66 1.33915 1.31829 21.0111 1.16205
5325.1 1.33322 1.3102 21.1155 1.16207
5325.53 1.32467 1.30256 21.2381 1.16208
5325.97 1.314 1.29545 21.3671 1.16209
5326.41 1.30236 1.28903 21.5388 1.16209
5326.84 1.29139 1.28346 21.7303 1.1621
5327.28 1.28288 1.27896 21.8634 1.1621
5327.71 1.27773 1.27568 21.9631 1.1621
5328.15 1.27612 1.27372 22.0047 1.1621
5328.59 1.27721 1.27306 22.0028 1.16209
5329.02 1.27934 1.27365 21.9738 1.16209
5329.46 1.28189 1.27546 21.9187 1.16208
5329.89 1.2852 1.27843 21.8473 1.16206
5330.33 1.28949 1.28253 21.7554 1.16205
5330.77 1.29475 1.28771 21.6507 1.16203
5331.2 1.30088 1.29388 21.5249 1.16201
5331.64 1.30763 1.3009 21.4064 1.16199
5332.07 1.31469 1.30861 21.3023 1.16197
5332.51 1.32169 1.31677 21.2001 1.16195
5332.95 1.32839 1.32508 21.1019 1.16192
5333.38 1.33488 1.33322 21.0051 1.16189
5333.82 1.34145 1.34091 20.9116 1.16186
5334.26 1.34869 1.34791 20.8157 1.16183
5334.69 1.35679 1.35409 20.7013 1.1618
5335.13 1.36469 1.35944 20.591 1.16176
5335.57 1.37132 1.36401 20.5253 1.16173
5336.0 1.37621 1.3679 20.4602 1.16169
5336.44 1.37912 1.37117 20.4361 1.16165
5336.88 1.38028 1.37381 20.412 1.16161
5337.31 1.38003 1.37579 20.4118 1.16156
5337.75 1.37878 1.37703 20.4131 1.16152
5338.19 1.37696 1.37751 20.4352 1.16148
5338.62 1.37481 1.37728 20.46 1.16143
5339.06 1.37252 1.37646 20.5015 1.16138
5339.5 1.37008 1.37518 20.5466 1.16133
5339.93 1.3675 1.37354 20.6045 1.16128
5340.37 1.36546 1.37169 20.6667 1.16123
5340.81 1.36487 1.36986 20.6769 1.16118
5341.24 1.36571 1.36831 20.6651 1.16113
5341.68 1.36742 1.36727 20.6218 1.16108
5342.12 1.36886 1.36679 20.5612 1.16102
5342.56 1.36861 1.36669 20.5541 1.16097
5342.99 1.36692 1.36665 20.5851 1.16091
5343.43 1.36532 1.36642 20.6072 1.16086
5343.87 1.36458 1.36593 20.6211 1.1608
5344.3 1.36467 1.36536 20.6297 1.16074
5344.74 1.36514 1.36506 20.6321 1.16068
5345.18 1.36512 1.3654 20.6381 1.16063
5345.62 1.36446 1.36666 20.6494 1.16057
5346.05 1.36393 1.36885 20.6549 1.16051
5346.49 1.36415 1.37182 20.6496 1.16045
5346.93 1.36544 1.37534 20.6396 1.16039
5347.37 1.36799 1.37909 20.6183 1.16033
5347.8 1.37182 1.38296 20.5867 1.16027
5348.24 1.3767 1.3869 20.5221 1.16021
5348.68 1.38182 1.39097 20.4591 1.16015
5349.12 1.38656 1.39525 20.4029 1.16009
5349.55 1.39087 1.39984 20.3469 1.16004
5349.99 1.39488 1.40478 20.2912 1.15998
5350.43 1.39901 1.41004 20.2328 1.15992
5350.87 1.40391 1.4156 20.1328 1.15986
5351.3 1.41095 1.42142 20.0333 1.1598
5351.74 1.42106 1.42744 19.906 1.15974
5352.18 1.43294 1.43363 19.7799 1.15969
5352.62 1.44458 1.43998 19.6516 1.15963
5353.06 1.45288 1.44648 19.5244 1.15957
5353.49 1.4555 1.4531 19.5094 1.15952
5353.93 1.45566 1.45976 19.5069 1.15946
5354.37 1.45786 1.46631 19.4677 1.15941
5354.81 1.46285 1.47254 19.4219 1.15935
5355.25 1.46969 1.47818 19.3578 1.1593
5355.68 1.47583 1.48299 19.289 1.15925
5356.12 1.47847 1.48683 19.2439 1.1592
5356.56 1.479 1.48966 19.2072 1.15915
5357.0 1.48087 1.4916 19.158 1.1591
5357.44 1.48497 1.49283 19.1032 1.15905
5357.88 1.49058 1.49353 19.0478 1.159
5358.31 1.49599 1.49378 18.9922 1.15896
5358.75 1.49887 1.49351 18.9819 1.15891
5359.19 1.49834 1.49255 19.0046 1.15887
5359.63 1.49469 1.49077 19.044 1.15883
5360.07 1.48864 1.48812 19.0986 1.15879
5360.51 1.48128 1.48466 19.1628 1.15875
5360.95 1.47395 1.48055 19.2377 1.15871
5361.38 1.46814 1.47584 19.312 1.15868
5361.82 1.46399 1.47058 19.3855 1.15864
5362.26 1.45991 1.46477 19.4549 1.15861
5362.7 1.4549 1.45849 19.5172 1.15858
5363.14 1.44886 1.45182 19.5798 1.15855
5363.58 1.44207 1.44484 19.6426 1.15852
5364.02 1.43517 1.43754 19.7208 1.1585
5364.46 1.42835 1.42988 19.8414 1.15847
5364.89 1.42086 1.42184 19.9639 1.15845
5365.33 1.41228 1.41355 20.0906 1.15843
5365.77 1.40314 1.40527 20.2178 1.15841
5366.21 1.39427 1.39731 20.3426 1.1584
5366.65 1.38686 1.38995 20.4624 1.15839
5367.09 1.38152 1.38332 20.5361 1.15837
5367.53 1.377 1.37741 20.6099 1.15837
5367.97 1.37215 1.37211 20.6783 1.15836
5368.41 1.36706 1.36733 20.7469 1.15836
5368.85 1.36228 1.36305 20.8035 1.15835
5369.29 1.35884 1.35935 20.8602 1.15836
5369.73 1.3576 1.35641 20.8498 1.15836
5370.16 1.35812 1.35438 20.8372 1.15837
5370.6 1.35962 1.35339 20.8136 1.15838
5371.04 1.36164 1.35345 20.7891 1.15839
5371.48 1.36383 1.3545 20.7587 1.1584
5371.92 1.36595 1.35647 20.7275 1.15842
5372.36 1.36789 1.35928 20.7021 1.15844
5372.8 1.36991 1.36289 20.6779 1.15846
5373.24 1.37248 1.36726 20.639 1.15849
5373.68 1.37599 1.37229 20.5959 1.15852
5374.12 1.38083 1.37781 20.5391 1.15855
5374.56 1.38731 1.38366 20.4776 1.15859
5375.0 1.39561 1.3897 20.378 1.15862
5375.44 1.4042 1.39586 20.2614 1.15867
5375.88 1.41071 1.40204 20.1786 1.15871
5376.32 1.4145 1.4081 20.1149 1.15876
5376.76 1.4163 1.41379 20.0694 1.15881
5377.2 1.41774 1.41884 20.0367 1.15887
5377.64 1.42102 1.4231 19.9844 1.15893
5378.08 1.42609 1.42661 19.916 1.15899
5378.52 1.43087 1.42953 19.8696 1.15906
5378.96 1.43423 1.43215 19.8451 1.15913
5379.4 1.43602 1.43459 19.8331 1.1592
5379.84 1.43656 1.43678 19.8362 1.15928
5380.28 1.43665 1.43854 19.8282 1.15936
5380.72 1.4368 1.43963 19.8042 1.15944
5381.16 1.43706 1.43997 19.7918 1.15953
5381.6 1.43733 1.43966 19.7994 1.15963
5382.04 1.43737 1.43895 19.8144 1.15972
5382.48 1.43679 1.43812 19.8449 1.15983
5382.92 1.43506 1.43726 19.8747 1.15993
5383.36 1.43226 1.4363 19.9029 1.16004
5383.8 1.42959 1.43505 19.9276 1.16015
5384.24 1.42794 1.43338 19.9408 1.16027
5384.68 1.4272 1.43126 19.9522 1.1604
5385.12 1.42691 1.42881 19.9563 1.16052
5385.56 1.42597 1.42615 19.9657 1.16065
5386.01 1.42371 1.4233 20.0059 1.16079
5386.45 1.42073 1.42023 20.0455 1.16093
5386.89 1.41766 1.41688 20.0801 1.16107
5387.33 1.41466 1.41323 20.1146 1.16122
5387.77 1.41171 1.40933 20.1458 1.16138
5388.21 1.4085 1.40531 20.1774 1.16153
5388.65 1.40484 1.4013 20.228 1.16169
5389.09 1.40124 1.39742 20.2788 1.16186
5389.53 1.39823 1.39361 20.3262 1.16202
5389.97 1.39574 1.38978 20.3737 1.1622
5390.41 1.39339 1.38573 20.4187 1.16237
5390.86 1.39039 1.38133 20.4637 1.16255
5391.3 1.38598 1.37659 20.5166 1.16273
5391.74 1.38024 1.37167 20.5705 1.16292
5392.18 1.37359 1.36673 20.6601 1.16311
5392.62 1.36653 1.36192 20.7562 1.1633
5393.06 1.35961 1.35733 20.8826 1.16349
5393.5 1.35351 1.35294 21.0169 1.16369
5393.94 1.34886 1.34877 21.0838 1.16389
5394.38 1.34568 1.34486 21.1314 1.1641
5394.83 1.34365 1.34131 21.1634 1.1643
5395.27 1.34239 1.33827 21.1899 1.16451
5395.71 1.34148 1.33587 21.202 1.16472
5396.15 1.34037 1.33411 21.2079 1.16494
5396.59 1.3385 1.33287 21.2392 1.16516
5397.03 1.3361 1.33192 21.2836 1.16538
5397.48 1.3339 1.33101 21.3334 1.1656
5397.92 1.33211 1.32996 21.3866 1.16582
5398.36 1.33055 1.32871 21.4451 1.16605
5398.8 1.32842 1.3273 21.5075 1.16628
5399.24 1.32452 1.3258 21.5743 1.16651
5399.68 1.31941 1.32425 21.6446 1.16674
5400.13 1.31519 1.32271 21.6841 1.16698
5400.57 1.31307 1.32119 21.6938 1.16722
5401.01 1.31333 1.31971 21.6708 1.16746
5401.45 1.31518 1.31826 21.6115 1.1677
5401.89 1.31678 1.3168 21.5825 1.16794
5402.33 1.31719 1.31524 21.5923 1.16818
5402.78 1.31663 1.31345 21.6091 1.16843
5403.22 1.31541 1.31135 21.6364 1.16867
5403.66 1.31382 1.30893 21.6703 1.16892
5404.1 1.31225 1.30628 21.7158 1.16917
5404.55 1.31116 1.30366 21.7475 1.16942
5404.99 1.31071 1.30138 21.7509 1.16967
5405.43 1.31057 1.2997 21.7539 1.16993
5405.87 1.31044 1.29878 21.7562 1.17018
5406.31 1.31017 1.29858 21.7591 1.17044
5406.76 1.3097 1.29899 21.7638 1.17069
5407.2 1.3092 1.29989 21.7639 1.17095
5407.64 1.30894 1.30128 21.7479 1.1712
5408.08 1.30952 1.30325 21.727 1.17146
5408.53 1.31141 1.30596 21.6852 1.17172
5408.97 1.3148 1.30955 21.6379 1.17198
5409.41 1.31954 1.31406 21.5608 1.17224
5409.85 1.32482 1.31947 21.482 1.1725
5410.3 1.33009 1.32574 21.3892 1.17276
5410.74 1.33584 1.33274 21.2943 1.17302
5411.18 1.34258 1.34038 21.1741 1.17328
5411.63 1.35036 1.34846 21.0523 1.17354
5412.07 1.35875 1.35667 20.8904 1.1738
5412.51 1.36592 1.36474 20.7324 1.17406
5412.95 1.37055 1.37246 20.6628 1.17432
5413.4 1.37433 1.3798 20.5935 1.17458
5413.84 1.37943 1.38691 20.5166 1.17484
5414.28 1.38703 1.39399 20.4401 1.17509
5414.73 1.39741 1.40115 20.3237 1.17535
5415.17 1.40777 1.40834 20.2066 1.17561
5415.61 1.41511 1.41527 20.1385 1.17587
5416.05 1.41965 1.4216 20.0744 1.17612
5416.5 1.42264 1.42703 20.0288 1.17638
5416.94 1.42517 1.43143 19.9856 1.17663
5417.38 1.4281 1.43486 19.9611 1.17689
5417.83 1.43097 1.43758 19.9395 1.17714
5418.27 1.43296 1.43987 19.9147 1.17739
5418.71 1.4342 1.44198 19.8892 1.17764
5419.16 1.43515 1.444 19.8756 1.17789
5419.6 1.43619 1.44582 19.8649 1.17814
5420.04 1.43759 1.44723 19.8845 1.17838
5420.49 1.43892 1.44796 19.913 1.17863
5420.93 1.43955 1.44787 19.9152 1.17887
5421.37 1.43948 1.44696 19.9086 1.17911
5421.82 1.43908 1.44541 19.9029 1.17935
5422.26 1.43865 1.44352 19.8976 1.17959
5422.71 1.43838 1.44156 19.9166 1.17983
5423.15 1.4374 1.43973 19.9465 1.18006
5423.59 1.43435 1.43808 19.9802 1.1803
5424.04 1.42961 1.43656 20.0159 1.18053
5424.48 1.42473 1.43505 20.0493 1.18076
5424.92 1.42127 1.4334 20.0814 1.18098
5425.37 1.42061 1.43145 20.101 1.18121
5425.81 1.42154 1.42904 20.1124 1.18143
5426.26 1.42099 1.42601 20.1417 1.18165
5426.7 1.41802 1.42236 20.1843 1.18186
5427.14 1.41346 1.41822 20.233 1.18208
5427.59 1.40857 1.41396 20.2867 1.18229
5428.03 1.40491 1.41 20.3347 1.1825
5428.48 1.40237 1.40659 20.3772 1.18271
5428.92 1.39933 1.40372 20.4232 1.18291
5429.36 1.39521 1.40115 20.4726 1.18311
5429.81 1.39057 1.39856 20.5208 1.18331
5430.25 1.38627 1.39575 20.5675 1.1835
5430.7 1.38343 1.39274 20.5972 1.18369
5431.14 1.38179 1.38973 20.6057 1.18388
5431.59 1.37955 1.38699 20.614 1.18406
5432.03 1.37619 1.38481 20.6222 1.18425
5432.48 1.37293 1.38345 20.6275 1.18442
5432.92 1.37159 1.38306 20.6281 1.1846
5433.36 1.37458 1.38368 20.6059 1.18477
5433.81 1.38155 1.38525 20.5447 1.18494
5434.25 1.38823 1.38761 20.4965 1.1851
5434.7 1.39195 1.39062 20.4725 1.18526
5435.14 1.39287 1.39416 20.4553 1.18541
5435.59 1.39236 1.39817 20.4526 1.18556
5436.03 1.39332 1.40267 20.4305 1.18571
5436.48 1.3973 1.4077 20.3625 1.18586
5436.92 1.40325 1.41329 20.2919 1.18599
5437.37 1.41009 1.41945 20.2138 1.18613
5437.81 1.41719 1.42609 20.134 1.18626
5438.26 1.42404 1.43299 20.0486 1.18639
5438.7 1.43028 1.43987 19.9717 1.18651
5439.15 1.43557 1.44631 19.9222 1.18662
5439.59 1.43955 1.45192 19.8749 1.18674
5440.04 1.44206 1.45637 19.835 1.18684
5440.48 1.44339 1.45953 19.797 1.18695
5440.93 1.44411 1.46148 19.7665 1.18705
5441.37 1.44533 1.46246 19.6764 1.18714
5441.82 1.44753 1.46276 19.2837 1.18723
5442.26 1.44955 1.46261 18.8126 1.18731
5442.71 1.45029 1.46204 17.8403 1.18739
5443.15 1.44958 1.46095 16.8657 1.18746
5443.6 1.44795 1.45925 15.4675 1.18753
5444.04 1.44744 1.45686 14.2654 1.18759
5444.49 1.44905 1.45384 13.44 1.18765
5444.93 1.44986 1.45027 12.7016 1.1877
5445.38 1.4471 1.44629 12.2147 1.18775
5445.83 1.44076 1.44202 11.7704 1.18779
5446.27 1.43293 1.43762 11.5871 1.18783
5446.72 1.43101 1.43336 11.4216 1.18787
5447.16 1.44073 1.42951 11.5997 1.1879
5447.61 1.45805 1.42632 11.7867 1.18792
5448.05 1.4771 1.42381 12.2274 1.18794
5448.5 1.49323 1.42176 12.6934 1.18796
5448.95 1.50298 1.41991 13.6021 1.18797
5449.39 1.50628 1.41798 14.6122 1.18798
5449.84 1.50411 1.41591 15.4089 1.18798
5450.28 1.49826 1.41386 16.2658 1.18798
5450.73 1.49061 1.41202 16.9731 1.18797
5451.18 1.48269 1.41062 17.7185 1.18796
5451.62 1.47536 1.40975 18.1546 1.18794
5452.07 1.46701 1.40935 18.5855 1.18792
5452.51 1.45591 1.40925 18.9142 1.1879
5452.96 1.44368 1.40922 19.2422 1.18787
5453.41 1.43289 1.4091 19.4901 1.18784
5453.85 1.42558 1.40888 19.7337 1.1878
5454.3 1.42282 1.40867 19.8237 1.18776
5454.74 1.42148 1.40865 19.8951 1.18772
5455.19 1.41764 1.40893 20.0014 1.18767
5455.64 1.4115 1.40944 20.1136 1.18762
5456.08 1.40478 1.40999 20.2136 1.18757
5456.53 1.39957 1.41038 20.3123 1.18751
5456.98 1.39768 1.4105 20.3214 1.18744
5457.42 1.39805 1.41041 20.3138 1.18738
5457.87 1.39872 1.41032 20.3217 1.18731
5458.32 1.39916 1.41047 20.3328 1.18723
5458.76 1.39948 1.41107 20.3476 1.18715
5459.21 1.40005 1.41217 20.3632 1.18707
5459.66 1.40127 1.41364 20.3622 1.18699
5460.1 1.40276 1.41522 20.3569 1.1869
5460.55 1.4039 1.41666 20.3621 1.1868
5461.0 1.40459 1.41778 20.3702 1.18671
5461.44 1.40501 1.41858 20.3806 1.18661
5461.89 1.40552 1.41912 20.3916 1.18651
5462.34 1.40651 1.41953 20.3725 1.1864
5462.78 1.4078 1.41983 20.3436 1.18629
5463.23 1.40898 1.41995 20.3275 1.18618
5463.68 1.4098 1.41991 20.316 1.18607
5464.12 1.41011 1.41976 20.3142 1.18595
5464.57 1.40985 1.41973 20.3161 1.18582
5465.02 1.40902 1.42006 20.3306 1.1857
5465.47 1.40802 1.42077 20.3502 1.18557
5465.91 1.40742 1.42174 20.3592 1.18544
5466.36 1.40744 1.42269 20.3637 1.18531
5466.81 1.40804 1.42329 20.3587 1.18517
5467.26 1.40886 1.42337 20.3493 1.18503
5467.7 1.40935 1.42286 20.3331 1.18489
5468.15 1.40958 1.42185 20.3135 1.18474
5468.6 1.40998 1.42055 20.3004 1.18459
5469.04 1.4106 1.41912 20.2904 1.18444
5469.49 1.41121 1.41757 20.2877 1.18429
5469.94 1.41105 1.41575 20.2889 1.18413
5470.39 1.40911 1.41342 20.3071 1.18397
5470.83 1.40574 1.41043 20.3348 1.18381
5471.28 1.40219 1.4068 20.3602 1.18365
5471.73 1.39917 1.40276 20.3843 1.18348
5472.18 1.39694 1.39859 20.4032 1.18331
5472.63 1.39456 1.39459 20.419 1.18314
5473.07 1.39037 1.39086 20.457 1.18297
5473.52 1.38478 1.38734 20.5095 1.18279
5473.97 1.37968 1.38396 20.5605 1.18261
5474.42 1.37637 1.3806 20.6107 1.18243
5474.86 1.37548 1.37729 20.652 1.18225
5475.31 1.37558 1.37417 20.6871 1.18207
5475.76 1.37374 1.37137 20.7542 1.18188
5476.21 1.36943 1.36897 20.8446 1.18169
5476.66 1.36415 1.36697 20.9273 1.1815
5477.1 1.35937 1.36531 21.0043 1.18131
5477.55 1.35651 1.36398 21.0414 1.18111
5478.0 1.35585 1.36304 21.0474 1.18091
5478.45 1.35675 1.36262 21.0453 1.18071
5478.9 1.35859 1.3628 21.0369 1.18051
5479.35 1.36078 1.36359 21.0266 1.18031
5479.79 1.36278 1.36493 21.015 1.18011
5480.24 1.36412 1.36666 21.0066 1.1799
5480.69 1.36484 1.3687 21.001 1.17969
5481.14 1.36544 1.36362 20.9908 1.17948
5481.59 1.36643 1.36544 20.9765 1.17927
5482.04 1.3683 1.36835 20.9541 1.17906
5482.49 1.3715 1.37161 20.9246 1.17884
5482.93 1.37637 1.37491 20.8616 1.17863
5483.38 1.38198 1.37796 20.7684 1.17841
5483.83 1.38629 1.38039 20.703 1.17819
5484.28 1.38855 1.38201 20.6635 1.17797
5484.73 1.3894 1.38334 20.639 1.17775
5485.18 1.39016 1.38501 20.6288 1.17753
5485.63 1.39274 1.38712 20.5964 1.1773
5486.07 1.39688 1.38945 20.5423 1.17708
5486.52 1.40023 1.39175 20.5057 1.17685
5486.97 1.40175 1.39376 20.4866 1.17662
5487.42 1.40184 1.39511 20.4814 1.17639
5487.87 1.40203 1.39529 20.4903 1.17616
5488.32 1.40476 1.39309 0.0 1.17593
5488.77 1.41001 1.39095 0.0 1.1757
5489.22 1.41516 1.38905 0.0 1.17547
5489.67 1.41849 1.38735 0.0 1.17524
5490.12 1.41944 1.38557 0.0 1.175
5490.57 1.41853 1.38332 0.0 1.17477
5491.01 1.41733 1.38019 0.0 1.17453
5491.46 1.41694 1.37581 0.0 1.17429
5491.91 1.41779 1.37002 0.0 1.17405
5492.36 1.41993 1.36278 0.0 1.17382
5492.81 1.42294 1.35408 0.0 1.17358
5493.26 1.42536 1.34368 0.0 1.17334
5493.71 1.42477 1.33089 0.0 1.1731
5494.16 1.42118 1.3148 0.0 1.17286
5494.61 1.41728 1.29455 0.0 1.17262
5495.06 1.41527 1.26977 0.0 1.17237
5495.51 1.41654 1.24112 0.0 1.17213
5495.96 1.42012 1.21005 0.0 1.17189
5496.41 1.4226 1.1776 0.0 1.17165
5496.86 1.42249 1.14334 0.0 1.1714
5497.31 1.42065 1.10531 0.0 1.17116
5497.76 1.41814 1.06154 0.0 1.17092
5498.21 1.41612 1.01195 0.0 1.17067
5498.66 1.41509 0.958698 0.0 1.17043
5499.11 1.41482 0.904482 0.0 1.17019
5499.56 1.415 0.850618 0.0 1.16994
