 v (km/s)      369
       -1001.26       -995.825       -990.392       -984.959       -979.526
       -974.093       -968.660       -963.227       -957.794       -952.361
       -946.927       -941.494       -936.060       -930.626       -925.192
       -919.758       -914.324       -908.890       -903.456       -898.022
       -892.587       -887.153       -881.718       -876.283       -870.848
       -865.413       -859.978       -854.543       -849.108       -843.673
       -838.237       -832.802       -827.366       -821.930       -816.494
       -811.059       -805.623       -800.186       -794.750       -789.314
       -783.877       -778.441       -773.004       -767.568       -762.131
       -756.694       -751.257       -745.820       -740.382       -734.945
       -729.508       -724.070       -718.633       -713.195       -707.757
       -702.319       -696.881       -691.443       -686.005       -680.567
       -675.128       -669.690       -664.251       -658.812       -653.374
       -647.935       -642.496       -637.057       -631.618       -626.178
       -620.739       -615.299       -609.860       -604.420       -598.980
       -593.540       -588.100       -582.660       -577.220       -571.780
       -566.340       -560.899       -555.458       -550.018       -544.577
       -539.136       -533.695       -528.254       -522.813       -517.372
       -511.930       -506.489       -501.047       -495.606       -490.164
       -484.722       -479.280       -473.838       -468.396       -462.954
       -457.511       -452.069       -446.626       -441.184       -435.741
       -430.298       -424.855       -419.412       -413.969       -408.526
       -403.082       -397.639       -392.195       -386.752       -381.308
       -375.864       -370.420       -364.976       -359.532       -354.088
       -348.643       -343.199       -337.754       -332.310       -326.865
       -321.420       -315.975       -310.530       -305.085       -299.640
       -294.195       -288.749       -283.304       -277.858       -272.412
       -266.966       -261.521       -256.075       -250.628       -245.182
       -239.736       -234.289       -228.843       -223.396       -217.950
       -212.503       -207.056       -201.609       -196.162       -190.715
       -185.267       -179.820       -174.372       -168.925       -163.477
       -158.029       -152.581       -147.133       -141.685       -136.237
       -130.789       -125.340       -119.892       -114.443       -108.995
       -103.546       -98.0970       -92.6480       -87.1989       -81.7497
       -76.3004       -70.8510       -65.4015       -59.9520       -54.5023
       -49.0525       -43.6026       -38.1526       -32.7026       -27.2524
       -21.8021       -16.3517       -10.9012       -5.45067   -1.13164e-09
        5.45077        10.9016        16.3526        21.8037        27.2549
        32.7061        38.1575        43.6090        49.0605        54.5122
        59.9639        65.4158        70.8678        76.3198        81.7720
        87.2242        92.6766        98.1291        103.582        109.034
        114.487        119.940        125.393        130.846        136.299
        141.752        147.206        152.659        158.113        163.566
        169.020        174.474        179.928        185.382        190.836
        196.290        201.745        207.199        212.654        218.108
        223.563        229.018        234.473        239.928        245.383
        250.838        256.293        261.749        267.204        272.660
        278.116        283.572        289.028        294.484        299.940
        305.396        310.852        316.309        321.765        327.222
        332.679        338.135        343.592        349.049        354.506
        359.964        365.421        370.878        376.336        381.793
        387.251        392.709        398.167        403.625        409.083
        414.541        420.000        425.458        430.916        436.375
        441.834        447.293        452.751        458.210        463.670
        469.129        474.588        480.048        485.507        490.967
        496.426        501.886        507.346        512.806        518.266
        523.726        529.187        534.647        540.107        545.568
        551.029        556.490        561.950        567.411        572.873
        578.334        583.795        589.256        594.718        600.179
        605.641        611.103        616.565        622.027        627.489
        632.951        638.413        643.876        649.338        654.801
        660.263        665.726        671.189        676.652        682.115
        687.578        693.042        698.505        703.968        709.432
        714.896        720.359        725.823        731.287        736.751
        742.216        747.680        753.144        758.609        764.073
        769.538        775.003        780.467        785.932        791.397
        796.863        802.328        807.793        813.259        818.724
        824.190        829.656        835.122        840.588        846.054
        851.520        856.986        862.452        867.919        873.385
        878.852        884.319        889.786        895.253        900.720
        906.187        911.654        917.121        922.589        928.056
        933.524        938.992        944.460        949.928        955.396
        960.864        966.332        971.800        977.269        982.737
        988.206        993.675        999.143        1004.61
 g(v)      369
    0.000243789    0.000185285    0.000160660    0.000155850    0.000164784
    0.000184231    0.000210845    0.000240671    0.000269640    0.000295584
    0.000320129    0.000346495    0.000375324    0.000401859    0.000414521
    0.000404345    0.000376472    0.000344967    0.000323510    0.000311669
    0.000286469    0.000229614    0.000155162    9.24837e-05    5.75301e-05
    4.61328e-05    5.01547e-05    6.63157e-05    9.23888e-05    0.000122210
    0.000149608    0.000171546    0.000186080    0.000195682    0.000209148
    0.000238574    0.000296530    0.000390670    0.000502667    0.000574643
    0.000549871    0.000437643    0.000313752    0.000232421    0.000203369
    0.000223626    0.000284293    0.000363088    0.000422924    0.000435711
    0.000417642    0.000403920    0.000413734    0.000450679    0.000504548
    0.000556136    0.000595488    0.000625027    0.000652672    0.000688839
    0.000739921    0.000810177    0.000899718     0.00100197     0.00110480
     0.00118867     0.00124497     0.00127833     0.00129555     0.00131107
     0.00133855     0.00138759     0.00146506     0.00156519     0.00166513
     0.00173618     0.00175982     0.00173733     0.00168621     0.00163122
     0.00161238     0.00166274     0.00178486     0.00194664     0.00205446
     0.00201781     0.00188178     0.00176290     0.00175560     0.00190602
     0.00215400     0.00235938     0.00243038     0.00239181     0.00233713
     0.00235920     0.00248680     0.00267580     0.00286535     0.00298743
     0.00302028     0.00300846     0.00298908     0.00300117     0.00306879
     0.00319568     0.00339563     0.00363976     0.00383827     0.00386988
     0.00370558     0.00346558     0.00332907     0.00346213     0.00385526
     0.00432020     0.00463371     0.00460653     0.00433959     0.00410492
     0.00401163     0.00408726     0.00429085     0.00454508     0.00481594
     0.00506414     0.00525882     0.00535604     0.00536263     0.00535210
     0.00535338     0.00539104     0.00548803     0.00564760     0.00586340
     0.00607765     0.00620059     0.00617197     0.00605946     0.00602343
     0.00616460     0.00648603     0.00688858     0.00716688     0.00720930
     0.00704099     0.00671397     0.00637549     0.00623051     0.00647401
     0.00720085     0.00821292     0.00878292     0.00803356     0.00617932
     0.00447581     0.00400132     0.00625852      0.0206201     0.00672737
     0.00428516     0.00468594     0.00643726     0.00844155     0.00940433
     0.00903477     0.00813360     0.00744342     0.00718688     0.00727668
     0.00753225     0.00782903     0.00808750     0.00822724     0.00819216
     0.00792739     0.00759256     0.00748248     0.00763760     0.00790634
     0.00812234     0.00820796     0.00814641     0.00782756     0.00744619
     0.00723630     0.00715548     0.00723238     0.00726089     0.00711301
     0.00694732     0.00684584     0.00690728     0.00723765     0.00776883
     0.00818206     0.00804079     0.00723024     0.00618276     0.00557086
     0.00590886     0.00745061     0.00969228      0.0103014     0.00726320
     0.00316017     0.00106833    0.000638658     0.00213344      0.0388469
     0.00168436    0.000496711    0.000912566     0.00283934     0.00646890
     0.00889588     0.00812397     0.00602838     0.00450930     0.00393132
     0.00406461     0.00460003     0.00515896     0.00539292     0.00519801
     0.00476570     0.00433831     0.00403373     0.00387588     0.00384313
     0.00387015     0.00385761     0.00373990     0.00354002     0.00333762
     0.00318498     0.00312192     0.00315028     0.00322293     0.00326307
     0.00322124     0.00309880     0.00292912     0.00275260     0.00261220
     0.00252217     0.00246269     0.00240911     0.00234081     0.00225021
     0.00214671     0.00205653     0.00199327     0.00195301     0.00192819
     0.00190409     0.00186901     0.00182212     0.00176962     0.00171238
     0.00165194     0.00159210     0.00153146     0.00146616     0.00139665
     0.00132764     0.00125889     0.00118852     0.00111701     0.00104817
    0.000982941    0.000922709    0.000869906    0.000826411    0.000788375
    0.000755304    0.000732727    0.000723377    0.000720587    0.000716282
    0.000704824    0.000680301    0.000638826    0.000584673    0.000529976
    0.000485396    0.000458627    0.000453036    0.000465625    0.000483546
    0.000485231    0.000449417    0.000371202    0.000268463    0.000169624
    9.36632e-05    4.41179e-05    1.63529e-05    3.89637e-06    3.08644e-07
    1.84315e-08    4.41491e-08    7.39647e-10    6.61934e-08    1.02581e-07
    4.93874e-08    1.74612e-09    2.18477e-08    9.21707e-08    1.66113e-07
    2.08344e-07    2.07241e-07    1.71500e-07    1.20110e-07    7.09438e-08
    3.38411e-08    1.10033e-08    9.18095e-10    1.72200e-09    1.27796e-08
    3.43469e-08    6.62189e-08    1.06738e-07    1.52691e-07    1.99704e-07
    2.43633e-07    2.81745e-07    3.12689e-07    3.35991e-07    3.52305e-07
    3.63637e-07    3.73321e-07    3.85639e-07    4.03821e-07    4.27746e-07
    4.52263e-07    4.66849e-07    4.56975e-07    4.06374e-07    3.04371e-07
    1.64027e-07    3.93904e-08    1.43494e-09    5.95078e-08    1.24748e-07
    1.07799e-07    3.44420e-08    1.36361e-11    1.90959e-08    1.96741e-08
    7.95313e-10    1.46148e-09    4.18729e-08    1.01311e-06    6.10473e-06
    2.01151e-05    4.54070e-05    7.74973e-05    0.000105452    0.000119303
    0.000117067    0.000104116    8.88457e-05    7.87301e-05    8.00357e-05
    0.000102403    0.000172585    0.000372810    0.000950085
